Range    : 5.000
Accuracy : 0.001
Control file  : C2HD3gr   
Spectrum file : w         

 Searching   0  0  0 near    723.02900
 No   1:   1  1  0        3.63042  reg   714.399 -   724.399

 Searching   1  0  1 near    724.42896
 No   1:   1  1  1        3.45881  reg   715.970 -   725.970
 No   2:   2  1  1        6.60191  reg   712.827 -   722.827
  1  1  1   716.19540 82.9   719.65421    2  1  1   713.05262 87.1   719.65453
  1  1  1   716.37528 84.2   719.83409    2  1  1   713.23235 75.6   719.83426
  1  1  1   716.46706 81.6   719.92587    2  1  1   713.32360 88.7   719.92551
  1  1  1   716.84991 89.0   720.30872    2  1  1   713.70643 71.4   720.30834
  1  1  1   717.16450 76.0   720.62331    2  1  1   714.02058 77.0   720.62249
  1  1  1   717.91787 83.1   721.37668    2  1  1   714.77464 89.3   721.37655
  1  1  1   717.93349 81.6   721.39230    2  1  1   714.78958 23.5   721.39149
  1  1  1   718.22299 84.9   721.68180    2  1  1   715.08042 83.0   721.68233
  1  1  1   718.36219 84.4   721.82100    2  1  1   715.21941 55.9   721.82132
  1  1  1   718.38445 88.9   721.84326    2  1  1   715.24075 53.5   721.84266
  1  1  1   718.42203 80.7   721.88084    2  1  1   715.27814 85.5   721.88005
  1  1  1   718.52987 80.3   721.98868    2  1  1   715.38753 87.2   721.98944
  1  1  1   718.61017 69.5   722.06898    2  1  1   715.46675 69.8   722.06866
  1  1  1   718.66924 84.4   722.12805    2  1  1   715.52705 89.9   722.12896
  1  1  1   718.67499 11.8   722.13380    2  1  1   715.53238 87.6   722.13429
  1  1  1   718.83781 88.6   722.29662    2  1  1   715.69557 84.0   722.29748
  1  1  1   719.03779 85.6   722.49660    2  1  1   715.89467 88.3   722.49658
  1  1  1   719.10584 86.9   722.56465    2  1  1   715.96287 81.2   722.56478
  1  1  1   719.23635 61.8   722.69516    2  1  1   716.09414 85.2   722.69605
  1  1  1   719.33790 18.7   722.79671    2  1  1   716.19540 82.9   722.79731
  1  1  1   719.47302 79.5   722.93183    2  1  1   716.32964 85.7   722.93155
  1  1  1   719.52163 82.1   722.98044    2  1  1   716.37928 88.5   722.98119
  1  1  1   719.56206 80.6   723.02087    2  1  1   716.41908 88.3   723.02099
  1  1  1   719.73891 87.5   723.19772    2  1  1   716.59559 59.3   723.19750
  1  1  1   719.76602 86.1   723.22483    2  1  1   716.62288 83.8   723.22479
  1  1  1   719.82307 40.6   723.28188    2  1  1   716.68010 80.3   723.28201
  1  1  1   719.83055 84.3   723.28936    2  1  1   716.68788 88.7   723.28979
  1  1  1   719.85570  0.5   723.31451    2  1  1   716.71289 82.8   723.31480
  1  1  1   719.86016 15.3   723.31897    2  1  1   716.71785 78.7   723.31976
  1  1  1   719.94961  7.2   723.40842    2  1  1   716.80666 85.5   723.40857
  1  1  1   719.96423  4.7   723.42304    2  1  1   716.82066 89.8   723.42257
  1  1  1   719.96912 11.9   723.42793    2  1  1   716.82637 80.8   723.42828
  1  1  1   720.12317  0.8   723.58198    2  1  1   716.98068 80.7   723.58259
  1  1  1   720.65183 63.3   724.11064    2  1  1   717.50806 82.8   724.10997
  1  1  1   720.67727 62.0   724.13608    2  1  1   717.53369 81.4   724.13560
  1  1  1   720.72404  1.3   724.18285    2  1  1   717.58187 76.9   724.18378
  1  1  1   720.78314 80.7   724.24195    2  1  1   717.63965 82.6   724.24156
  1  1  1   721.06111 83.6   724.51992    2  1  1   717.91787 83.1   724.51978
  1  1  1   721.14819 86.9   724.60700    2  1  1   718.00468 15.8   724.60659
  1  1  1   721.17137 80.8   724.63018    2  1  1   718.02818 82.3   724.63009
  1  1  1   721.29681 84.9   724.75562    2  1  1   718.15468 83.3   724.75659
  1  1  1   721.33372 81.8   724.79253    2  1  1   718.19147 78.8   724.79338
  1  1  1   721.36130 83.3   724.82011    2  1  1   718.21741 40.3   724.81932
  1  1  1   721.36602 87.4   724.82483    2  1  1   718.22299 84.9   724.82490
  1  1  1   721.52798 47.8   724.98679    2  1  1   718.38445 88.9   724.98636
  1  1  1   721.54617 70.4   725.00498    2  1  1   718.40292 87.2   725.00483
  1  1  1   721.66764 85.7   725.12645    2  1  1   718.52427 80.3   725.12618
  1  1  1   721.67822 82.2   725.13703    2  1  1   718.53591 80.4   725.13782
  1  1  1   721.80244 89.6   725.26125    2  1  1   718.66018 89.0   725.26209
  1  1  1   721.85001 85.5   725.30882    2  1  1   718.70705 74.1   725.30896
  1  1  1   721.91140 76.7   725.37021    2  1  1   718.76884 89.6   725.37075
  1  1  1   721.97662 79.4   725.43543    2  1  1   718.83321 88.7   725.43512
  1  1  1   721.98189 86.4   725.44070    2  1  1   718.83781 88.6   725.43972
  1  1  1   722.02210 80.6   725.48091    2  1  1   718.87905 79.7   725.48096
  1  1  1   722.19725 72.4   725.65606    2  1  1   719.05409 65.4   725.65600
  1  1  1   722.44413 85.6   725.90294    2  1  1   719.30101 81.2   725.90292
  1  1  1   722.49717 90.0   725.95598    2  1  1   719.35310  7.4   725.95501
  1  1  1   722.52727 85.1   725.98608    2  1  1   719.38443 88.8   725.98634
  1  1  1   722.63114 53.7   726.08995    2  1  1   719.48719 78.6   726.08910
  1  1  1   722.83283 79.7   726.29164    2  1  1   719.68934 81.8   726.29125
  1  1  1   722.88157 52.4   726.34038    2  1  1   719.73891 87.5   726.34082
  1  1  1   722.90490 62.6   726.36371    2  1  1   719.76174 88.6   726.36365
  1  1  1   723.00276 80.1   726.46157    2  1  1   719.86016 15.3   726.46207
  1  1  1   723.04183 87.6   726.50064    2  1  1   719.89818 66.8   726.50009
  1  1  1   723.09262 34.2   726.55143    2  1  1   719.94961  7.2   726.55152
  1  1  1   723.10724 85.7   726.56605    2  1  1   719.96423  4.7   726.56614
  1  1  1   723.14128 89.2   726.60009    2  1  1   719.99891 66.8   726.60082
  1  1  1   723.21402 70.7   726.67283    2  1  1   720.07161  9.7   726.67352
  1  1  1   723.23782 81.9   726.69663    2  1  1   720.09401  1.1   726.69592
  1  1  1   723.26544 87.4   726.72425    2  1  1   720.12317  0.8   726.72508
  1  1  1   723.27128 87.4   726.73009    2  1  1   720.12853 53.9   726.73044
  1  1  1   723.31015 86.9   726.76896    2  1  1   720.16765  1.5   726.76956
  1  1  1   723.47045 86.0   726.92926    2  1  1   720.32656 85.3   726.92847
  1  1  1   723.72936 89.7   727.18817    2  1  1   720.58592 89.8   727.18783
  1  1  1   724.05041 22.0   727.50922    2  1  1   720.90651 59.6   727.50842
  1  1  1   724.11037 88.8   727.56918    2  1  1   720.96717 86.4   727.56908
  1  1  1   724.15294 85.1   727.61175    2  1  1   721.01043 86.7   727.61234
  1  1  1   724.44435 81.2   727.90316    2  1  1   721.30207 87.5   727.90398
  1  1  1   724.47083 80.8   727.92964    2  1  1   721.32857 87.6   727.93048
  1  1  1   724.50439 88.8   727.96320    2  1  1   721.36130 83.3   727.96321
  1  1  1   724.50895 76.5   727.96776    2  1  1   721.36602 87.4   727.96793
  1  1  1   724.52401 31.2   727.98282    2  1  1   721.38133 86.3   727.98324
  1  1  1   724.54597 86.6   728.00478    2  1  1   721.40323 62.1   728.00514
  1  1  1   724.56107 29.3   728.01988    2  1  1   721.41847 52.8   728.02038
  1  1  1   724.57089 81.9   728.02970    2  1  1   721.42832 78.8   728.03023
  1  1  1   724.58026 86.0   728.03907    2  1  1   721.43756 26.1   728.03947
  1  1  1   724.61297 77.9   728.07178    2  1  1   721.47024 64.7   728.07215
  1  1  1   724.61861 31.2   728.07742    2  1  1   721.47579 86.3   728.07770
  1  1  1   724.69856 87.3   728.15737    2  1  1   721.55532 61.6   728.15723
  1  1  1   724.70423 23.0   728.16304    2  1  1   721.56202 87.8   728.16393
  1  1  1   724.94560 81.2   728.40441    2  1  1   721.80244 89.6   728.40435
  1  1  1   724.97939 88.9   728.43820    2  1  1   721.83706 86.5   728.43897
  1  1  1   725.09352 80.9   728.55233    2  1  1   721.95005 72.1   728.55196
  1  1  1   725.09913 31.2   728.55794    2  1  1   721.95549 59.9   728.55740
  1  1  1   725.16598 31.7   728.62479    2  1  1   722.02210 80.6   728.62401
  1  1  1   725.48496 50.4   728.94377    2  1  1   722.34093 74.7   728.94284
  1  1  1   725.66479 47.1   729.12360    2  1  1   722.52238 88.4   729.12429
  1  1  1   725.80029 87.7   729.25910    2  1  1   722.65718 76.5   729.25909
  1  1  1   725.81979 54.7   729.27860    2  1  1   722.67605 86.0   729.27796
  1  1  1   725.86097 65.0   729.31978    2  1  1   722.71794 72.5   729.31985
  1  1  1   725.93545 38.2   729.39426    2  1  1   722.79136 76.6   729.39327
  1  1  1   725.97570 84.1   729.43451    2  1  1   722.83283 79.7   729.43474

 Searching   2  0  2 near    727.21856
 No   1:   2  1  2        6.08707  reg   716.131 -   726.131
 No   2:   3  1  2       11.05245  reg   711.166 -   721.166
  2  1  2   716.30633 84.2   722.39340    3  1  2   711.34087 77.7   722.39332
  2  1  2   716.37928 88.5   722.46635    3  1  2   711.41373 85.0   722.46618
  2  1  2   716.53299 88.4   722.62006    3  1  2   711.56796 87.0   722.62041
  2  1  2   716.54817 84.6   722.63524    3  1  2   711.58254 89.2   722.63499
  2  1  2   716.57047 79.9   722.65754    3  1  2   711.60585 82.3   722.65830
  2  1  2   717.37141 89.5   723.45848    3  1  2   712.40546 76.9   723.45791
  2  1  2   718.19147 78.8   724.27854    3  1  2   713.22580 78.1   724.27825
  2  1  2   719.53798 74.9   725.62505    3  1  2   714.57247 70.0   725.62492
  2  1  2   719.76174 88.6   725.84881    3  1  2   714.79570 81.5   725.84815
  2  1  2   719.96423  4.7   726.05130    3  1  2   714.99975 84.4   726.05220
  2  1  2   719.99891 66.8   726.08598    3  1  2   715.03360 87.7   726.08605
  2  1  2   720.07161  9.7   726.15868    3  1  2   715.10651 68.1   726.15896
  2  1  2   720.11863  1.5   726.20570    3  1  2   715.15345 89.7   726.20590
  2  1  2   720.12317  0.8   726.21024    3  1  2   715.15841 59.7   726.21086
  2  1  2   720.12853 53.9   726.21560    3  1  2   715.16375 66.7   726.21620
  2  1  2   720.25850 70.8   726.34557    3  1  2   715.29404 85.3   726.34649
  2  1  2   720.39896 77.1   726.48603    3  1  2   715.43359 82.0   726.48604
  2  1  2   720.49816 85.5   726.58524    3  1  2   715.53238 87.6   726.58483
  2  1  2   720.51349  8.8   726.60056    3  1  2   715.54805 87.1   726.60050
  2  1  2   720.61646 89.2   726.70353    3  1  2   715.65052 89.9   726.70297
  2  1  2   720.65183 63.3   726.73890    3  1  2   715.68605 73.3   726.73850
  2  1  2   720.66184 31.4   726.74891    3  1  2   715.69557 84.0   726.74802
  2  1  2   720.71870 17.4   726.80577    3  1  2   715.75283 84.1   726.80528
  2  1  2   720.85053 65.8   726.93760    3  1  2   715.88461 86.9   726.93706
  2  1  2   720.92264 76.1   727.00971    3  1  2   715.95651 85.2   727.00896
  2  1  2   720.92832 89.7   727.01539    3  1  2   715.96287 81.2   727.01532
  2  1  2   721.08988 85.7   727.17695    3  1  2   716.12523 84.8   727.17768
  2  1  2   721.16656 87.1   727.25363    3  1  2   716.20101 55.1   727.25346
  2  1  2   721.19611 62.4   727.28318    3  1  2   716.23091 84.9   727.28336
  2  1  2   721.23717 89.8   727.32424    3  1  2   716.27225 85.5   727.32470
  2  1  2   721.24751 63.3   727.33458    3  1  2   716.28302 73.4   727.33547
  2  1  2   721.39556 85.5   727.48263    3  1  2   716.42986 72.6   727.48231
  2  1  2   721.47024 64.7   727.55731    3  1  2   716.50530 24.6   727.55775
  2  1  2   721.55532 61.6   727.64239    3  1  2   716.58958 85.4   727.64203
  2  1  2   721.65287 66.9   727.73994    3  1  2   716.68788 88.7   727.74033
  2  1  2   721.67822 82.2   727.76529    3  1  2   716.71289 82.8   727.76534
  2  1  2   721.87437 63.3   727.96144    3  1  2   716.90905 85.7   727.96150
  2  1  2   721.95549 59.9   728.04256    3  1  2   716.98963 80.4   728.04208
  2  1  2   722.19725 72.4   728.28432    3  1  2   717.23151 83.9   728.28396
  2  1  2   722.22422 80.6   728.31129    3  1  2   717.25830 87.7   728.31075
  2  1  2   722.22976 89.8   728.31683    3  1  2   717.26350 80.7   728.31595
  2  1  2   722.31653 85.1   728.40360    3  1  2   717.35093 89.6   728.40338
  2  1  2   722.46494 87.1   728.55201    3  1  2   717.49961 74.1   728.55206
  2  1  2   722.49265 85.1   728.57972    3  1  2   717.52699 83.0   728.57944
  2  1  2   722.52238 88.4   728.60945    3  1  2   717.55752 84.5   728.60997
  2  1  2   722.53259 79.6   728.61966    3  1  2   717.56743 82.4   728.61988
  2  1  2   722.53863 82.0   728.62570    3  1  2   717.57226 84.6   728.62471
  2  1  2   722.65718 76.5   728.74425    3  1  2   717.69080 89.2   728.74325
  2  1  2   722.81969 87.6   728.90676    3  1  2   717.85493 74.6   728.90738
  2  1  2   722.87629 74.1   728.96336    3  1  2   717.91176 66.0   728.96421
  2  1  2   722.92694 61.0   729.01401    3  1  2   717.96229 88.8   729.01474
  2  1  2   723.06166 86.8   729.14873    3  1  2   718.09636 90.0   729.14881
  2  1  2   723.16835 31.9   729.25542    3  1  2   718.20209 71.3   729.25454
  2  1  2   723.25634 88.8   729.34341    3  1  2   718.29096 84.1   729.34341
  2  1  2   723.29359 52.5   729.38066    3  1  2   718.32901 82.1   729.38146
  2  1  2   723.53551 56.1   729.62258    3  1  2   718.56932 81.8   729.62177
  2  1  2   723.70610 76.8   729.79317    3  1  2   718.74051 80.7   729.79296
  2  1  2   723.72936 89.7   729.81643    3  1  2   718.76302 81.0   729.81547
  2  1  2   723.91420 49.2   730.00127    3  1  2   718.94809 86.2   730.00054
  2  1  2   724.00228 80.8   730.08935    3  1  2   719.03779 85.6   730.09024
  2  1  2   724.47083 80.8   730.55790    3  1  2   719.50608 70.5   730.55853
  2  1  2   724.62280 41.3   730.70987    3  1  2   719.65750 76.9   730.70995
  2  1  2   724.64368 60.4   730.73075    3  1  2   719.67865 89.8   730.73110
  2  1  2   724.70423 23.0   730.79130    3  1  2   719.73891 87.5   730.79136
  2  1  2   724.75032 20.3   730.83739    3  1  2   719.78494 88.6   730.83739
  2  1  2   724.75559 39.7   730.84266    3  1  2   719.78956 89.2   730.84201
  2  1  2   724.77050 89.2   730.85757    3  1  2   719.80485 79.3   730.85730
  2  1  2   724.85327 85.8   730.94034    3  1  2   719.88767 62.0   730.94012
  2  1  2   724.97939 88.9   731.06646    3  1  2   720.01317  5.2   731.06562
  2  1  2   725.02653 11.5   731.11360    3  1  2   720.06080  6.0   731.11325
  2  1  2   725.09352 80.9   731.18059    3  1  2   720.12853 53.9   731.18098
  2  1  2   725.14559 89.2   731.23266    3  1  2   720.18080 41.4   731.23325
  2  1  2   725.48496 50.4   731.57203    3  1  2   720.51962 85.0   731.57207
  2  1  2   725.57722 59.6   731.66429    3  1  2   720.61102 57.7   731.66347
  2  1  2   725.63280 69.5   731.71987    3  1  2   720.66723 79.5   731.71968
  2  1  2   725.64235 77.7   731.72942    3  1  2   720.67727 62.0   731.72972
  2  1  2   725.89397 66.0   731.98104    3  1  2   720.92832 89.7   731.98077
  2  1  2   725.95235 85.5   732.03942    3  1  2   720.98687 69.9   732.03932
  2  1  2   725.97570 84.1   732.06277    3  1  2   721.01043 86.7   732.06288
  2  1  2   726.11352 90.0   732.20059    3  1  2   721.14819 86.9   732.20064

 Searching   3  0  3 near    731.37744
 No   1:   3  1  3       10.02318  reg   716.354 -   726.354
 No   2:   4  1  3       16.97345  reg   709.404 -   719.404
  3  1  3   716.62288 83.8   726.64606    4  1  3   709.67321 82.5   726.64666
  3  1  3   716.98068 80.7   727.00386    4  1  3   710.03032 68.2   727.00377
  3  1  3   718.15468 83.3   728.17786    4  1  3   711.20401 76.3   728.17746
  3  1  3   718.21741 40.3   728.24059    4  1  3   711.26672 87.6   728.24017
  3  1  3   718.29096 84.1   728.31414    4  1  3   711.34087 77.7   728.31432
  3  1  3   718.59263 88.8   728.61581    4  1  3   711.64334 68.9   728.61679
  3  1  3   718.68896 60.7   728.71214    4  1  3   711.73818 33.5   728.71163
  3  1  3   719.15436 88.5   729.17754    4  1  3   712.20413 89.9   729.17758
  3  1  3   719.30101 81.2   729.32419    4  1  3   712.35160 84.2   729.32505
  3  1  3   720.01317  5.2   730.03635    4  1  3   713.06387 71.9   730.03732
  3  1  3   720.07161  9.7   730.09479    4  1  3   713.12196 75.6   730.09541
  3  1  3   720.25850 70.8   730.28168    4  1  3   713.30901 73.5   730.28246
  3  1  3   720.31130 45.5   730.33448    4  1  3   713.36080 82.7   730.33425
  3  1  3   720.32656 85.3   730.34974    4  1  3   713.37710 88.1   730.35055
  3  1  3   720.39896 77.1   730.42214    4  1  3   713.44949 58.9   730.42294
  3  1  3   720.52997  1.4   730.55315    4  1  3   713.57931 89.5   730.55276
  3  1  3   720.56427 72.5   730.58745    4  1  3   713.61311 85.5   730.58656
  3  1  3   720.65674  1.3   730.67992    4  1  3   713.70643 71.4   730.67988
  3  1  3   720.66723 79.5   730.69041    4  1  3   713.71795 72.3   730.69140
  3  1  3   720.67727 62.0   730.70045    4  1  3   713.72700 76.8   730.70045
  3  1  3   720.70516 87.9   730.72834    4  1  3   713.75530 67.8   730.72875
  3  1  3   721.47579 86.3   731.49897    4  1  3   714.52642 84.5   731.49987
  3  1  3   721.95005 72.1   731.97323    4  1  3   714.99975 84.4   731.97320
  3  1  3   722.09355 62.6   732.11673    4  1  3   715.14407 87.4   732.11752
  3  1  3   722.10830 85.2   732.13148    4  1  3   715.15841 59.7   732.13186
  3  1  3   722.11414 76.3   732.13732    4  1  3   715.16375 66.7   732.13720
  3  1  3   722.42268 89.7   732.44586    4  1  3   715.47217 86.7   732.44562
  3  1  3   722.43790 52.6   732.46108    4  1  3   715.48772 80.1   732.46117
  3  1  3   722.46494 87.1   732.48812    4  1  3   715.51474 75.5   732.48819
  3  1  3   722.62596 78.3   732.64914    4  1  3   715.67628 89.8   732.64973
  3  1  3   722.64626 85.7   732.66944    4  1  3   715.69557 84.0   732.66902
  3  1  3   722.65131 90.0   732.67449    4  1  3   715.70084 88.9   732.67429
  3  1  3   722.70382 74.6   732.72700    4  1  3   715.75283 84.1   732.72628
  3  1  3   722.92694 61.0   732.95012    4  1  3   715.97758 87.0   732.95103
  3  1  3   723.23252 57.9   733.25570    4  1  3   716.28302 73.4   733.25647
  3  1  3   723.25634 88.8   733.27952    4  1  3   716.30633 84.2   733.27978
  3  1  3   723.32595 84.4   733.34913    4  1  3   716.37528 84.2   733.34873
  3  1  3   723.43262 46.3   733.45580    4  1  3   716.48165 76.7   733.45510
  3  1  3   723.48778 80.2   733.51096    4  1  3   716.53812 84.4   733.51157
  3  1  3   723.54658 30.1   733.56976    4  1  3   716.59559 59.3   733.56904
  3  1  3   723.55253 85.7   733.57571    4  1  3   716.60296 86.1   733.57641
  3  1  3   723.63829 52.4   733.66147    4  1  3   716.68788 88.7   733.66133
  3  1  3   723.67667 84.3   733.69985    4  1  3   716.72733 82.5   733.70078
  3  1  3   723.69514 89.3   733.71832    4  1  3   716.74568 83.2   733.71913
  3  1  3   723.93909 74.7   733.96227    4  1  3   716.98963 80.4   733.96308
  3  1  3   724.14824 83.8   734.17142    4  1  3   717.19698 81.1   734.17043
  3  1  3   724.30216 82.4   734.32534    4  1  3   717.35093 89.6   734.32438
  3  1  3   724.48392 87.5   734.50710    4  1  3   717.53369 81.4   734.50714
  3  1  3   724.51816 86.4   734.54134    4  1  3   717.56743 82.4   734.54088
  3  1  3   724.56107 29.3   734.58425    4  1  3   717.61117 74.4   734.58462
  3  1  3   724.58939 88.0   734.61257    4  1  3   717.63965 82.6   734.61310
  3  1  3   724.69856 87.3   734.72174    4  1  3   717.74804 78.0   734.72149
  3  1  3   724.83374 25.9   734.85692    4  1  3   717.88296 88.0   734.85641
  3  1  3   724.93624 89.2   734.95942    4  1  3   717.98561 89.8   734.95906
  3  1  3   724.97939 88.9   735.00257    4  1  3   718.02818 82.3   735.00163
  3  1  3   725.10396 40.9   735.12714    4  1  3   718.15468 83.3   735.12813
  3  1  3   725.11412 86.8   735.13730    4  1  3   718.16313 84.3   735.13658
  3  1  3   725.27920 81.8   735.30238    4  1  3   718.32901 82.1   735.30246
  3  1  3   725.54950 56.4   735.57268    4  1  3   718.59865 11.5   735.57210
  3  1  3   725.55546 86.2   735.57864    4  1  3   718.60458 80.9   735.57803
  3  1  3   725.65830 74.5   735.68148    4  1  3   718.70705 74.1   735.68050
  3  1  3   725.91703 68.5   735.94021    4  1  3   718.96717 89.4   735.94062
  3  1  3   726.03479 57.6   736.05797    4  1  3   719.08381 84.7   736.05726
  3  1  3   726.15216 11.7   736.17534    4  1  3   719.20192 78.4   736.17537
  3  1  3   726.15819 89.7   736.18137    4  1  3   719.20744 86.5   736.18089
  3  1  3   726.16794 79.2   736.19112    4  1  3   719.21749 82.3   736.19094
  3  1  3   726.18236 78.6   736.20554    4  1  3   719.23114 23.9   736.20459
  3  1  3   726.21049 62.7   736.23367    4  1  3   719.26111 87.1   736.23456

 Searching   4  0  4 near    736.87636
 No   1:   4  1  4       15.26012  reg   716.616 -   726.616
 No   2:   5  1  4       24.35254  reg   707.524 -   717.524
  4  1  4   716.68788 88.7   731.94800    5  1  4   707.59520 87.4   731.94774
  4  1  4   716.69304 89.9   731.95316    5  1  4   707.60079 34.6   731.95333
  4  1  4   717.23151 83.9   732.49163    5  1  4   708.13933 83.7   732.49187
  4  1  4   717.37141 89.5   732.63153    5  1  4   708.27998 84.6   732.63252
  4  1  4   718.68896 60.7   733.94908    5  1  4   709.59674 88.5   733.94928
  4  1  4   718.83781 88.6   734.09793    5  1  4   709.74469 68.4   734.09723
  4  1  4   719.12175 87.1   734.38187    5  1  4   710.03032 68.2   734.38286
  4  1  4   719.23635 61.8   734.49647    5  1  4   710.14351 87.9   734.49605
  4  1  4   719.44008 29.7   734.70020    5  1  4   710.34781 78.5   734.70035
  4  1  4   719.47302 79.5   734.73314    5  1  4   710.38058 88.6   734.73312
  4  1  4   719.47793 86.7   734.73805    5  1  4   710.38560 89.2   734.73814
  4  1  4   719.48719 78.6   734.74731    5  1  4   710.39567 49.0   734.74821
  4  1  4   719.68934 81.8   734.94946    5  1  4   710.59687 74.7   734.94941
  4  1  4   719.76174 88.6   735.02186    5  1  4   710.66976 88.5   735.02230
  4  1  4   719.85570  0.5   735.11582    5  1  4   710.76342 77.2   735.11596
  4  1  4   720.01317  5.2   735.27329    5  1  4   710.92117 89.7   735.27371
  4  1  4   720.57623 84.7   735.83635    5  1  4   711.48398 68.4   735.83652
  4  1  4   720.87978 79.0   736.13990    5  1  4   711.78712 71.3   736.13966
  4  1  4   721.16656 87.1   736.42668    5  1  4   712.07501 80.7   736.42755
  4  1  4   721.29681 84.9   736.55693    5  1  4   712.20413 89.9   736.55667
  4  1  4   721.68857 87.9   736.94869    5  1  4   712.59523 78.5   736.94777
  4  1  4   722.01538 67.4   737.27550    5  1  4   712.92284 83.9   737.27538
  4  1  4   722.72434 60.7   737.98446    5  1  4   713.63190 79.0   737.98444
  4  1  4   722.81969 87.6   738.07981    5  1  4   713.72700 76.8   738.07954
  4  1  4   723.54096 82.5   738.80108    5  1  4   714.44807 76.8   738.80061
  4  1  4   723.91420 49.2   739.17432    5  1  4   714.82232 81.2   739.17486
  4  1  4   724.11037 88.8   739.37049    5  1  4   715.01777 87.7   739.37031
  4  1  4   724.26050 88.2   739.52062    5  1  4   715.16907 87.2   739.52161
  4  1  4   724.30216 82.4   739.56228    5  1  4   715.21001 70.5   739.56255
  4  1  4   724.49503 83.5   739.75515    5  1  4   715.40353 67.3   739.75607
  4  1  4   724.58026 86.0   739.84038    5  1  4   715.48772 80.1   739.84026
  4  1  4   724.60723 21.1   739.86735    5  1  4   715.51474 75.5   739.86728
  4  1  4   724.61861 31.2   739.87873    5  1  4   715.52705 89.9   739.87959
  4  1  4   724.82249 29.4   740.08261    5  1  4   715.72929 60.1   740.08183
  4  1  4   725.00552 89.8   740.26564    5  1  4   715.91258 86.1   740.26512
  4  1  4   725.08750 37.0   740.34762    5  1  4   715.99467 74.8   740.34721
  4  1  4   725.21698 85.6   740.47710    5  1  4   716.12523 84.8   740.47777
  4  1  4   725.30462 34.4   740.56474    5  1  4   716.21192 86.8   740.56446
  4  1  4   725.47117 31.1   740.73129    5  1  4   716.37928 88.5   740.73182
  4  1  4   725.71556 66.5   740.97568    5  1  4   716.62288 83.8   740.97542
  4  1  4   725.78040 44.1   741.04052    5  1  4   716.68788 88.7   741.04042
  4  1  4   725.80491 87.2   741.06503    5  1  4   716.71289 82.8   741.06543
  4  1  4   725.80951 86.1   741.06963    5  1  4   716.71785 78.7   741.07039
  4  1  4   725.81979 54.7   741.07991    5  1  4   716.72733 82.5   741.07987
  4  1  4   725.91221 80.4   741.17233    5  1  4   716.82066 89.8   741.17320
  4  1  4   726.22587 85.7   741.48600    5  1  4   717.13442 87.8   741.48696
  4  1  4   726.29023 75.5   741.55035    5  1  4   717.19698 81.1   741.54952
  4  1  4   726.35597 71.5   741.61609    5  1  4   717.26350 80.7   741.61604
  4  1  4   726.51960 69.4   741.77972    5  1  4   717.42705 72.4   741.77959

 Searching   5  0  5 near    743.68034
 No   1:   5  1  5       21.78938  reg   716.891 -   726.891
 No   2:   6  1  5       33.17281  reg   705.508 -   715.508
  5  1  5   717.26350 80.7   739.05288    6  1  5   705.88003 73.8   739.05284
  5  1  5   717.38436 89.4   739.17374    6  1  5   706.00002 86.7   739.17283
  5  1  5   717.70109 74.0   739.49047    6  1  5   706.31692 80.7   739.48973
  5  1  5   717.89331 84.6   739.68269    6  1  5   706.51065 74.7   739.68346
  5  1  5   718.61017 69.5   740.39955    6  1  5   707.22645 71.2   740.39926
  5  1  5   718.96717 89.4   740.75655    6  1  5   707.58440 33.7   740.75721
  5  1  5   719.26111 87.1   741.05049    6  1  5   707.87793 44.2   741.05074
  5  1  5   719.90685  8.2   741.69623    6  1  5   708.52433 85.2   741.69714
  5  1  5   720.52997  1.4   742.31935    6  1  5   709.14636 61.1   742.31917
  5  1  5   720.92832 89.7   742.71770    6  1  5   709.54444 77.8   742.71725
  5  1  5   721.19611 62.4   742.98549    6  1  5   709.81288 88.8   742.98569
  5  1  5   721.25233 86.4   743.04171    6  1  5   709.86923 81.6   743.04204
  5  1  5   721.26230 25.2   743.05168    6  1  5   709.87843 73.8   743.05124
  5  1  5   721.54617 70.4   743.33555    6  1  5   710.16247 78.2   743.33528
  5  1  5   721.75527 86.9   743.54465    6  1  5   710.37086 83.8   743.54367
  5  1  5   722.05287 86.7   743.84225    6  1  5   710.66976 88.5   743.84257
  5  1  5   722.53259 79.6   744.32197    6  1  5   711.14917 21.0   744.32198
  5  1  5   722.53863 82.0   744.32801    6  1  5   711.15476 88.2   744.32757
  5  1  5   722.56307 80.8   744.35245    6  1  5   711.17926 46.9   744.35207
  5  1  5   722.72434 60.7   744.51372    6  1  5   711.34087 77.7   744.51368
  5  1  5   723.02671 32.8   744.81609    6  1  5   711.64334 68.9   744.81615
  5  1  5   723.12133 63.0   744.91071    6  1  5   711.73818 33.5   744.91099
  5  1  5   723.27661 87.2   745.06599    6  1  5   711.89228 52.1   745.06509
  5  1  5   723.28255 60.6   745.07193    6  1  5   711.89846 56.1   745.07127
  5  1  5   723.41517 81.0   745.20455    6  1  5   712.03091 87.9   745.20372
  5  1  5   724.26050 88.2   746.04988    6  1  5   712.87626 85.8   746.04907
  5  1  5   724.50439 88.8   746.29377    6  1  5   713.12196 75.6   746.29477
  5  1  5   724.53098 24.7   746.32036    6  1  5   713.14715 79.4   746.31996
  5  1  5   724.53753 21.7   746.32691    6  1  5   713.15372 84.2   746.32653
  5  1  5   724.56595 21.0   746.35533    6  1  5   713.18197 81.5   746.35478
  5  1  5   724.76143 16.5   746.55081    6  1  5   713.37710 88.1   746.54991
  5  1  5   724.83374 25.9   746.62312    6  1  5   713.44949 58.9   746.62230
  5  1  5   724.89429 85.1   746.68367    6  1  5   713.50998 51.8   746.68279
  5  1  5   725.10943 85.8   746.89881    6  1  5   713.72700 76.8   746.89981
  5  1  5   725.11412 86.8   746.90350    6  1  5   713.73136 80.2   746.90417
  5  1  5   725.27920 81.8   747.06858    6  1  5   713.89621 82.7   747.06902
  5  1  5   725.43451 40.3   747.22389    6  1  5   714.05126 87.9   747.22407
  5  1  5   725.44572 76.5   747.23510    6  1  5   714.06287 89.3   747.23568
  5  1  5   725.85545 75.7   747.64483    6  1  5   714.47280 87.5   747.64561
  5  1  5   726.06365 88.7   747.85303    6  1  5   714.68095 74.4   747.85376
  5  1  5   726.15819 89.7   747.94757    6  1  5   714.77464 89.3   747.94745
  5  1  5   726.17254 88.0   747.96192    6  1  5   714.78958 23.5   747.96239
  5  1  5   726.31441 72.6   748.10379    6  1  5   714.93120 87.8   748.10401
  5  1  5   726.48999 88.7   748.27937    6  1  5   715.10651 68.1   748.27932
  5  1  5   726.60350 88.6   748.39288    6  1  5   715.21941 55.9   748.39222
  5  1  5   726.66063 83.1   748.45001    6  1  5   715.27814 85.5   748.45095

 Searching   6  0  6 near    751.75415
 No   1:   6  1  6       29.60161  reg   717.153 -   727.153
 No   2:   7  1  6       43.41200  reg   703.342 -   713.342
  6  1  6   717.21223 85.9   746.81384    7  1  6   703.40132 88.1   746.81332
  6  1  6   717.35093 89.6   746.95254    7  1  6   703.53989 82.4   746.95189
  6  1  6   717.38436 89.4   746.98597    7  1  6   703.57479 49.4   746.98679
  6  1  6   717.70926 85.5   747.31087    7  1  6   703.89802 49.2   747.31002
  6  1  6   717.88296 88.0   747.48457    7  1  6   704.07293 85.1   747.48493
  6  1  6   717.95610 37.1   747.55771    7  1  6   704.14613 88.0   747.55813
  6  1  6   718.00468 15.8   747.60629    7  1  6   704.19377 46.3   747.60577
  6  1  6   718.68040 89.0   748.28201    7  1  6   704.87046 72.9   748.28246
  6  1  6   718.94809 86.2   748.54970    7  1  6   705.13794 85.9   748.54994
  6  1  6   719.35310  7.4   748.95471    7  1  6   705.54266 86.6   748.95466
  6  1  6   719.79434 83.3   749.39595    7  1  6   705.98361 71.3   749.39561
  6  1  6   720.16765  1.5   749.76926    7  1  6   706.35806 71.9   749.77006
  6  1  6   720.55777 74.4   750.15938    7  1  6   706.74829 88.7   750.16029
  6  1  6   720.85053 65.8   750.45214    7  1  6   707.04024 52.6   750.45224
  6  1  6   720.88495 73.0   750.48656    7  1  6   707.07383 23.3   750.48583
  6  1  6   721.06111 83.6   750.66272    7  1  6   707.25157 89.7   750.66357
  6  1  6   721.20889 25.5   750.81050    7  1  6   707.39943 69.5   750.81143
  6  1  6   721.39556 85.5   750.99717    7  1  6   707.58440 33.7   750.99640
  6  1  6   721.68857 87.9   751.29018    7  1  6   707.87793 44.2   751.28993
  6  1  6   721.95005 72.1   751.55166    7  1  6   708.13933 83.7   751.55133
  6  1  6   722.15030 84.7   751.75191    7  1  6   708.34050 51.9   751.75250
  6  1  6   722.83283 79.7   752.43444    7  1  6   709.02209 86.4   752.43409
  6  1  6   722.95611 89.8   752.55772    7  1  6   709.14636 61.1   752.55836
  6  1  6   723.44889 77.5   753.05050    7  1  6   709.63820 80.0   753.05020
  6  1  6   723.59051 70.0   753.19212    7  1  6   709.77983 81.9   753.19183
  6  1  6   723.64811 63.7   753.24972    7  1  6   709.83687 73.1   753.24887
  6  1  6   723.98554 22.1   753.58715    7  1  6   710.17603 82.6   753.58803
  6  1  6   724.53753 21.7   754.13914    7  1  6   710.72684 87.6   754.13884
  6  1  6   724.85327 85.8   754.45488    7  1  6   711.04251 62.2   754.45451
  6  1  6   724.89429 85.1   754.49590    7  1  6   711.08439 88.9   754.49639
  6  1  6   725.15096 80.8   754.75257    7  1  6   711.34087 77.7   754.75287
  6  1  6   725.54950 56.4   755.15111    7  1  6   711.73818 33.5   755.15018
  6  1  6   725.55546 86.2   755.15707    7  1  6   711.74472 49.7   755.15672
  6  1  6   725.70344 81.5   755.30505    7  1  6   711.89228 52.1   755.30428
  6  1  6   725.92959 88.0   755.53120    7  1  6   712.11916 72.2   755.53116
  6  1  6   726.01400 56.7   755.61561    7  1  6   712.20413 89.9   755.61613
  6  1  6   726.16794 79.2   755.76955    7  1  6   712.35713 81.4   755.76913
  6  1  6   726.30109 88.0   755.90270    7  1  6   712.49126 51.9   755.90326
  6  1  6   726.48999 88.7   756.09160    7  1  6   712.68056 71.0   756.09256
  6  1  6   726.95689 48.3   756.55850    7  1  6   713.14715 79.4   756.55915

 Searching   7  0  7 near    761.06855
 No   1:   7  1  7       38.68720  reg   717.381 -   727.381
 No   2:   8  1  7       55.04179  reg   701.027 -   711.027
  7  1  7   717.50806 82.8   756.19526    8  1  7   701.15287 75.5   756.19466
  7  1  7   718.20209 71.3   756.88929    8  1  7   701.84751 78.0   756.88930
  7  1  7   718.42203 80.7   757.10923    8  1  7   702.06682 77.0   757.10861
  7  1  7   718.68040 89.0   757.36760    8  1  7   702.32611 79.2   757.36790
  7  1  7   719.33790 18.7   758.02510    8  1  7   702.98371 84.5   758.02550
  7  1  7   719.47793 86.7   758.16513    8  1  7   703.12405 65.0   758.16584
  7  1  7   719.56206 80.6   758.24926    8  1  7   703.20727 76.5   758.24906
  7  1  7   720.08537  2.0   758.77257    8  1  7   703.73122 60.4   758.77301
  7  1  7   720.55777 74.4   759.24497    8  1  7   704.20403 89.7   759.24582
  7  1  7   720.56427 72.5   759.25147    8  1  7   704.20891 46.0   759.25070
  7  1  7   720.65674  1.3   759.34394    8  1  7   704.30210 37.2   759.34389
  7  1  7   720.66184 31.4   759.34904    8  1  7   704.30769 86.1   759.34948
  7  1  7   720.66723 79.5   759.35443    8  1  7   704.31215 88.3   759.35394
  7  1  7   720.67193 83.3   759.35913    8  1  7   704.31682 84.1   759.35861
  7  1  7   721.95005 72.1   760.63725    8  1  7   705.59564 80.6   760.63743
  7  1  7   721.99809 89.4   760.68529    8  1  7   705.64445 78.9   760.68624
  7  1  7   722.10830 85.2   760.79550    8  1  7   705.75284 22.9   760.79463
  7  1  7   722.13281 70.4   760.82001    8  1  7   705.77805 78.4   760.81984
  7  1  7   722.16530 80.8   760.85250    8  1  7   705.81025 83.6   760.85204
  7  1  7   722.35481 86.7   761.04201    8  1  7   706.00002 86.7   761.04181
  7  1  7   722.68952 89.8   761.37672    8  1  7   706.33468 89.7   761.37647
  7  1  7   722.81969 87.6   761.50689    8  1  7   706.46422 78.9   761.50601
  7  1  7   723.47045 86.0   762.15765    8  1  7   707.11631 77.7   762.15810
  7  1  7   723.48177 67.9   762.16897    8  1  7   707.12723 32.6   762.16902
  7  1  7   723.58201 45.8   762.26921    8  1  7   707.22645 71.2   762.26824
  7  1  7   723.67667 84.3   762.36387    8  1  7   707.32131 87.2   762.36310
  7  1  7   723.93909 74.7   762.62629    8  1  7   707.58440 33.7   762.62619
  7  1  7   724.03716 86.3   762.72436    8  1  7   707.68333 87.9   762.72512
  7  1  7   724.30216 82.4   762.98936    8  1  7   707.94826 87.7   762.99005
  7  1  7   724.69455 86.6   763.38175    8  1  7   708.34050 51.9   763.38229
  7  1  7   725.05316 74.6   763.74036    8  1  7   708.69809 62.9   763.73988
  7  1  7   725.11872 87.6   763.80592    8  1  7   708.76487 79.3   763.80666
  7  1  7   725.44572 76.5   764.13292    8  1  7   709.09063 76.0   764.13242
  7  1  7   725.69772 26.6   764.38492    8  1  7   709.34220 77.8   764.38399
  7  1  7   726.13371 47.1   764.82091    8  1  7   709.77983 81.9   764.82162
  7  1  7   726.16794 79.2   764.85514    8  1  7   709.81288 88.8   764.85467
  7  1  7   726.17254 88.0   764.85974    8  1  7   709.81753 84.4   764.85932
  7  1  7   726.35597 71.5   765.04317    8  1  7   710.00060 86.5   765.04239
  7  1  7   726.38572 60.7   765.07292    8  1  7   710.03032 68.2   765.07211
  7  1  7   726.64274 58.2   765.32994    8  1  7   710.28866 89.5   765.33045
  7  1  7   726.72524 56.2   765.41244    8  1  7   710.37086 83.8   765.41265
  7  1  7   726.73986 89.4   765.42706    8  1  7   710.38560 89.2   765.42739
  7  1  7   726.81548 31.9   765.50268    8  1  7   710.46049 76.4   765.50228
  7  1  7   726.95173 87.2   765.63893    8  1  7   710.59687 74.7   765.63866
  7  1  7   727.39709 88.1   766.08429    8  1  7   711.04251 62.2   766.08430

 Searching   8  0  8 near    771.60428
 No   1:   8  1  8       49.03699  reg   717.567 -   727.567
 No   2:   9  1  8       68.02799  reg   698.576 -   708.576
  8  1  8   718.64685 81.2   767.68384    9  1  8   699.65566 89.7   767.68365
  8  1  8   718.96717 89.4   768.00416    9  1  8   699.97524 56.6   768.00323
  8  1  8   719.10089 78.8   768.13788    9  1  8   700.10953 89.4   768.13752
  8  1  8   719.35310  7.4   768.39009    9  1  8   700.36159 87.4   768.38958
  8  1  8   719.78494 88.6   768.82193    9  1  8   700.79349 87.2   768.82148
  8  1  8   719.79434 83.3   768.83133    9  1  8   700.80384 76.8   768.83183
  8  1  8   719.90685  8.2   768.94384    9  1  8   700.91561 85.7   768.94360
  8  1  8   720.02387  1.4   769.06086    9  1  8   701.03347 57.1   769.06146
  8  1  8   720.41488 40.3   769.45187    9  1  8   701.42379 86.7   769.45178
  8  1  8   720.51349  8.8   769.55048    9  1  8   701.52348 44.6   769.55147
  8  1  8   720.72404  1.3   769.76103    9  1  8   701.73332 83.2   769.76131
  8  1  8   720.90651 59.6   769.94350    9  1  8   701.91559 88.6   769.94358
  8  1  8   721.19611 62.4   770.23310    9  1  8   702.20488 74.1   770.23287
  8  1  8   721.21498 85.1   770.25197    9  1  8   702.22324 77.2   770.25123
  8  1  8   721.42832 78.8   770.46531    9  1  8   702.43809 88.7   770.46608
  8  1  8   721.98189 86.4   771.01888    9  1  8   702.99004 51.5   771.01803
  8  1  8   722.11414 76.3   771.15113    9  1  8   703.12405 65.0   771.15204
  8  1  8   722.87629 74.1   771.91328    9  1  8   703.88550 89.2   771.91349
  8  1  8   723.12133 63.0   772.15832    9  1  8   704.13102 82.7   772.15901
  8  1  8   723.29359 52.5   772.33058    9  1  8   704.30210 37.2   772.33009
  8  1  8   723.33841 48.4   772.37540    9  1  8   704.34642 46.9   772.37441
  8  1  8   723.40010 83.1   772.43709    9  1  8   704.40832 35.5   772.43631
  8  1  8   723.98002 89.4   773.01701    9  1  8   704.98950 89.7   773.01749
  8  1  8   724.12858 16.3   773.16557    9  1  8   705.13794 85.9   773.16593
  8  1  8   724.15294 85.1   773.18993    9  1  8   705.16138 88.3   773.18937
  8  1  8   724.75032 20.3   773.78731    9  1  8   705.75840 86.5   773.78639
  8  1  8   724.95602 23.5   773.99301    9  1  8   705.96504 73.7   773.99303
  8  1  8   725.32497 55.2   774.36196    9  1  8   706.33468 89.7   774.36267
  8  1  8   725.64235 77.7   774.67934    9  1  8   706.65161 85.6   774.67960
  8  1  8   725.91703 68.5   774.95402    9  1  8   706.92566 82.0   774.95365
  8  1  8   725.92959 88.0   774.96658    9  1  8   706.93785 74.9   774.96584
  8  1  8   725.95820 66.0   774.99519    9  1  8   706.96748 82.4   774.99547
  8  1  8   726.63223 51.5   775.66922    9  1  8   707.64025 87.0   775.66824
  8  1  8   726.93486 76.2   775.97185    9  1  8   707.94292 67.5   775.97091
  8  1  8   727.52506 87.2   776.56205    9  1  8   708.53413 88.4   776.56212

 Searching   9  0  9 near    783.35216
 No   1:   9  1  9       60.64265  reg   717.710 -   727.710
 No   2:  10  1  9       82.33194  reg   696.020 -   706.020
  9  1  9   717.96229 88.8   778.60494   10  1  9   696.27316 78.2   778.60510
  9  1  9   718.06272 55.4   778.70537   10  1  9   696.37304 87.5   778.70498
  9  1  9   718.86031 78.8   779.50296   10  1  9   697.17120 39.3   779.50314
  9  1  9   718.89851 80.9   779.54116   10  1  9   697.20912 76.1   779.54106
  9  1  9   719.86016 15.3   780.50281   10  1  9   698.17105 54.1   780.50299
  9  1  9   719.89818 66.8   780.54083   10  1  9   698.20828 89.9   780.54022
  9  1  9   720.18080 41.4   780.82345   10  1  9   698.49134 64.6   780.82328
  9  1  9   720.22823 82.8   780.87088   10  1  9   698.53952 63.5   780.87146
  9  1  9   720.36146 68.0   781.00411   10  1  9   698.67246 89.1   781.00440
  9  1  9   720.48349 78.5   781.12614   10  1  9   698.79498 86.0   781.12692
  9  1  9   720.53524 55.7   781.17789   10  1  9   698.84620 35.7   781.17814
  9  1  9   720.54086 65.2   781.18351   10  1  9   698.85231 69.7   781.18425
  9  1  9   721.23717 89.8   781.87982   10  1  9   699.54767 87.6   781.87961
  9  1  9   721.47024 64.7   782.11289   10  1  9   699.78114 86.8   782.11308
  9  1  9   722.10830 85.2   782.75095   10  1  9   700.41916 86.0   782.75110
  9  1  9   722.49265 85.1   783.13530   10  1  9   700.80384 76.8   783.13578
  9  1  9   723.06166 86.8   783.70431   10  1  9   701.37277 69.0   783.70471
  9  1  9   723.16835 31.9   783.81100   10  1  9   701.47946 56.9   783.81140
  9  1  9   723.69514 89.3   784.33779   10  1  9   702.00579 73.7   784.33773
  9  1  9   723.89768 79.6   784.54033   10  1  9   702.20901 63.0   784.54095
  9  1  9   723.98554 22.1   784.62819   10  1  9   702.29581 77.2   784.62775
  9  1  9   724.02548 84.9   784.66813   10  1  9   702.33539 89.9   784.66733
  9  1  9   724.53098 24.7   785.17363   10  1  9   702.84224 85.2   785.17418
  9  1  9   724.61861 31.2   785.26126   10  1  9   702.92855 84.5   785.26049
  9  1  9   724.67994 87.5   785.32259   10  1  9   702.99004 51.5   785.32198
  9  1  9   725.25862 43.3   785.90127   10  1  9   703.56858 88.1   785.90052
  9  1  9   725.26409 83.5   785.90674   10  1  9   703.57479 49.4   785.90673
  9  1  9   725.54950 56.4   786.19215   10  1  9   703.86081 71.1   786.19275
  9  1  9   725.63280 69.5   786.27545   10  1  9   703.94367 84.4   786.27561
  9  1  9   725.81979 54.7   786.46244   10  1  9   704.13102 82.7   786.46296
  9  1  9   725.89397 66.0   786.53662   10  1  9   704.20403 89.7   786.53597
  9  1  9   725.99079 50.5   786.63344   10  1  9   704.30210 37.2   786.63404
  9  1  9   726.03479 57.6   786.67744   10  1  9   704.34642 46.9   786.67836
  9  1  9   726.25982 54.3   786.90247   10  1  9   704.57002 38.9   786.90196
  9  1  9   726.38572 60.7   787.02837   10  1  9   704.69676 82.5   787.02870
  9  1  9   726.56066 84.6   787.20331   10  1  9   704.87046 72.9   787.20240
  9  1  9   727.00674 78.1   787.64939   10  1  9   705.31841 86.9   787.65035
  9  1  9   727.65398 83.4   788.29663   10  1  9   705.96504 73.7   788.29698

 Searching  10  0 10 near    796.31023
 No   1:  10  1 10       73.49706  reg   717.813 -   727.813
 No   2:  11  1 10       97.91389  reg   693.396 -   703.396
 10  1 10   718.36854 88.6   791.86560   11  1 10   693.95141 78.6   791.86530
 10  1 10   718.64685 81.2   792.14391   11  1 10   694.23053 89.1   792.14442
 10  1 10   718.67499 11.8   792.17205   11  1 10   694.25815 87.1   792.17204
 10  1 10   718.70705 74.1   792.20411   11  1 10   694.28961 88.1   792.20350
 10  1 10   718.71797 74.9   792.21503   11  1 10   694.30084 88.7   792.21473
 10  1 10   718.90731 86.5   792.40437   11  1 10   694.49017 86.8   792.40406
 10  1 10   719.10584 86.9   792.60290   11  1 10   694.68872 88.6   792.60261
 10  1 10   719.16030  7.6   792.65736   11  1 10   694.74318 82.1   792.65707
 10  1 10   719.35862  5.0   792.85568   11  1 10   694.94084 88.7   792.85473
 10  1 10   719.58975 74.5   793.08681   11  1 10   695.17364 89.1   793.08753
 10  1 10   719.86016 15.3   793.35722   11  1 10   695.44371 77.4   793.35760
 10  1 10   720.22823 82.8   793.72529   11  1 10   695.81042 43.4   793.72431
 10  1 10   720.49816 85.5   793.99523   11  1 10   696.08057 82.1   793.99446
 10  1 10   721.18229 87.9   794.67935   11  1 10   696.76599 85.5   794.67988
 10  1 10   721.48882 85.9   794.98588   11  1 10   697.07115 77.4   794.98504
 10  1 10   721.80244 89.6   795.29950   11  1 10   697.38612 80.1   795.30001
 10  1 10   721.98760  9.7   795.48466   11  1 10   697.56991 63.5   795.48380
 10  1 10   722.03384 47.6   795.53090   11  1 10   697.61728 56.3   795.53117
 10  1 10   722.05287 86.7   795.54993   11  1 10   697.63551 49.2   795.54940
 10  1 10   722.62596 78.3   796.12302   11  1 10   698.20828 89.9   796.12217
 10  1 10   722.95611 89.8   796.45317   11  1 10   698.53952 63.5   796.45341
 10  1 10   723.33145 85.9   796.82851   11  1 10   698.91416 73.2   796.82805
 10  1 10   724.00228 80.8   797.49934   11  1 10   699.58548 82.1   797.49937
 10  1 10   724.02548 84.9   797.52254   11  1 10   699.60930 89.7   797.52319
 10  1 10   724.12858 16.3   797.62564   11  1 10   699.71217 79.8   797.62606
 10  1 10   724.24364 38.7   797.74070   11  1 10   699.82695 78.2   797.74084
 10  1 10   724.39301 88.9   797.89007   11  1 10   699.97524 56.6   797.88913
 10  1 10   724.51816 86.4   798.01522   11  1 10   700.10139 80.0   798.01528
 10  1 10   724.94560 81.2   798.44266   11  1 10   700.52833 86.8   798.44222
 10  1 10   725.02653 11.5   798.52359   11  1 10   700.60962 86.1   798.52351
 10  1 10   725.25862 43.3   798.75568   11  1 10   700.84220  4.6   798.75609
 10  1 10   725.34183 64.8   798.83889   11  1 10   700.92403 68.3   798.83792
 10  1 10   725.97014 57.6   799.46720   11  1 10   701.55315 63.5   799.46704
 10  1 10   726.11352 90.0   799.61058   11  1 10   701.69702 77.2   799.61091
 10  1 10   726.49938 73.3   799.99644   11  1 10   702.08202 86.6   799.99591
 10  1 10   727.01676 88.8   800.51382   11  1 10   702.60015 71.3   800.51404
 10  1 10   727.32133 87.5   800.81839   11  1 10   702.90480 77.1   800.81869
 10  1 10   727.70270 85.9   801.19976   11  1 10   703.28490 89.8   801.19879

 Searching  11  0 11 near    810.48032
 No   1:  11  1 11       87.59435  reg   717.886 -   727.886
 No   2:  12  1 11      114.73798  reg   690.742 -   700.742
 11  1 11   718.15468 83.3   805.74903   12  1 11   691.01044 63.8   805.74842
 11  1 11   718.52987 80.3   806.12422   12  1 11   691.38664 88.8   806.12462
 11  1 11   718.68896 60.7   806.28331   12  1 11   691.54531 83.7   806.28329
 11  1 11   718.86031 78.8   806.45466   12  1 11   691.71634 87.3   806.45432
 11  1 11   719.62644 77.4   807.22079   12  1 11   692.48296 89.5   807.22094
 11  1 11   719.94961  7.2   807.54396   12  1 11   692.80579 76.2   807.54377
 11  1 11   720.25850 70.8   807.85285   12  1 11   693.11466 60.2   807.85264
 11  1 11   720.41488 40.3   808.00923   12  1 11   693.27068 63.2   808.00866
 11  1 11   720.54086 65.2   808.13521   12  1 11   693.39627 49.3   808.13425
 11  1 11   720.66184 31.4   808.25619   12  1 11   693.51915 85.7   808.25713
 11  1 11   721.24203 82.5   808.83638   12  1 11   694.09907 89.7   808.83705
 11  1 11   721.28222 73.8   808.87657   12  1 11   694.13829 88.7   808.87627
 11  1 11   721.42832 78.8   809.02267   12  1 11   694.28462 89.4   809.02260
 11  1 11   721.46600 82.6   809.06035   12  1 11   694.32236 62.9   809.06034
 11  1 11   721.54617 70.4   809.14052   12  1 11   694.40164 45.9   809.13962
 11  1 11   722.31653 85.1   809.91088   12  1 11   695.17364 89.1   809.91162
 11  1 11   722.63114 53.7   810.22549   12  1 11   695.48796 72.5   810.22594
 11  1 11   723.59051 70.0   811.18486   12  1 11   696.44650 89.8   811.18448
 11  1 11   723.59598 82.1   811.19033   12  1 11   696.45170 89.1   811.18968
 11  1 11   723.91420 49.2   811.50855   12  1 11   696.77143 15.6   811.50941
 11  1 11   723.96169 88.5   811.55604   12  1 11   696.81765 49.0   811.55563
 11  1 11   724.71347 59.3   812.30782   12  1 11   697.56991 63.5   812.30789
 11  1 11   724.71836 47.5   812.31271   12  1 11   697.57499 26.3   812.31297
 11  1 11   724.73490 35.6   812.32925   12  1 11   697.59047 89.5   812.32845
 11  1 11   724.76143 16.5   812.35578   12  1 11   697.61728 56.3   812.35526
 11  1 11   724.92200 87.2   812.51635   12  1 11   697.77909 80.1   812.51707
 11  1 11   725.80491 87.2   813.39926   12  1 11   698.66052 88.1   813.39850
 11  1 11   725.99079 50.5   813.58514   12  1 11   698.84620 35.7   813.58418
 11  1 11   726.06900 57.0   813.66335   12  1 11   698.92459 61.7   813.66257
 11  1 11   726.29023 75.5   813.88458   12  1 11   699.14638 76.8   813.88436
 11  1 11   726.49938 73.3   814.09373   12  1 11   699.35583 86.7   814.09381
 11  1 11   726.80455 78.0   814.39890   12  1 11   699.66156 24.7   814.39954
 11  1 11   726.81032 87.0   814.40467   12  1 11   699.66604 45.1   814.40402
 11  1 11   726.93486 76.2   814.52921   12  1 11   699.79047 75.6   814.52845
 11  1 11   727.11298 46.5   814.70733   12  1 11   699.96983 88.9   814.70781
 11  1 11   727.53970 86.6   815.13405   12  1 11   700.39591 56.9   815.13389
 11  1 11   727.68666 78.4   815.28101   12  1 11   700.54317 66.1   815.28115

 Searching  12  0 12 near    825.86559
 No   1:  12  1 12      102.92991  reg   717.936 -   727.936
 No   2:  13  1 12      132.77686  reg   688.089 -   698.089
 12  1 12   718.09100 85.3   821.02091   13  1 12   688.24398 88.1   821.02084
 12  1 12   718.29096 84.1   821.22087   13  1 12   688.44416 66.6   821.22102
 12  1 12   718.59865 11.5   821.52856   13  1 12   688.75173 87.4   821.52859
 12  1 12   718.60458 80.9   821.53449   13  1 12   688.75812 79.3   821.53498
 12  1 12   718.64685 81.2   821.57676   13  1 12   688.79929 78.7   821.57615
 12  1 12   719.10089 78.8   822.03080   13  1 12   689.25467 86.3   822.03153
 12  1 12   719.12175 87.1   822.05166   13  1 12   689.27426 88.9   822.05112
 12  1 12   719.34831 83.9   822.27822   13  1 12   689.50234 88.4   822.27920
 12  1 12   720.18080 41.4   823.11071   13  1 12   690.33387 87.5   823.11073
 12  1 12   720.22823 82.8   823.15814   13  1 12   690.38079 85.5   823.15765
 12  1 12   720.26269 50.3   823.19260   13  1 12   690.41549 83.8   823.19235
 12  1 12   720.57623 84.7   823.50614   13  1 12   690.72829 83.3   823.50515
 12  1 12   720.71870 17.4   823.64861   13  1 12   690.87196 74.7   823.64882
 12  1 12   721.28222 73.8   824.21213   13  1 12   691.43429 84.0   824.21115
 12  1 12   721.38133 86.3   824.31124   13  1 12   691.53522 79.4   824.31208
 12  1 12   722.81969 87.6   825.74960   13  1 12   692.97180 64.0   825.74866
 12  1 12   723.00276 80.1   825.93267   13  1 12   693.15650 86.7   825.93336
 12  1 12   723.44889 77.5   826.37880   13  1 12   693.60175 45.6   826.37861
 12  1 12   723.59598 82.1   826.52589   13  1 12   693.74911 90.0   826.52597
 12  1 12   723.63829 52.4   826.56820   13  1 12   693.79164 60.0   826.56850
 12  1 12   723.98554 22.1   826.91545   13  1 12   694.13829 88.7   826.91515
 12  1 12   724.14824 83.8   827.07815   13  1 12   694.30084 88.7   827.07770
 12  1 12   724.15294 85.1   827.08285   13  1 12   694.30517 85.2   827.08203
 12  1 12   724.33729 30.4   827.26720   13  1 12   694.49017 86.8   827.26703
 12  1 12   724.50895 76.5   827.43886   13  1 12   694.66246 71.0   827.43932
 12  1 12   724.54597 86.6   827.47588   13  1 12   694.69940 58.4   827.47626
 12  1 12   724.58939 88.0   827.51930   13  1 12   694.74318 82.1   827.52004
 12  1 12   724.69455 86.6   827.62446   13  1 12   694.84714 85.0   827.62400
 12  1 12   724.71347 59.3   827.64338   13  1 12   694.86709 89.1   827.64395
 12  1 12   724.77050 89.2   827.70041   13  1 12   694.92433 85.2   827.70119
 12  1 12   724.83919 84.0   827.76910   13  1 12   694.99267 83.4   827.76953
 12  1 12   725.65830 74.5   828.58821   13  1 12   695.81042 43.4   828.58728
 12  1 12   725.80491 87.2   828.73482   13  1 12   695.95845 85.6   828.73531
 12  1 12   726.17254 88.0   829.10245   13  1 12   696.32542 74.4   829.10228
 12  1 12   726.18236 78.6   829.11227   13  1 12   696.33460 24.2   829.11146
 12  1 12   726.22587 85.7   829.15578   13  1 12   696.37805 84.9   829.15491
 12  1 12   726.68895 83.7   829.61886   13  1 12   696.84295 83.9   829.61981
 12  1 12   726.94680 65.8   829.87671   13  1 12   697.09895 70.1   829.87581
 12  1 12   727.08856 88.1   830.01847   13  1 12   697.24086 89.1   830.01772
 12  1 12   727.46494 28.8   830.39485   13  1 12   697.61728 56.3   830.39414
 12  1 12   727.48339 83.0   830.41330   13  1 12   697.63551 49.2   830.41237
 12  1 12   727.86442 86.4   830.79433   13  1 12   698.01663 83.5   830.79349

 Searching  13  0 13 near    842.46912
 No   1:  13  1 13      119.50023  reg   717.969 -   727.969
 No   2:  14  1 13      152.01415  reg   685.455 -   695.455
 13  1 13   718.06903 89.3   837.56926   14  1 13   685.55429 78.2   837.56844
 13  1 13   718.24543 77.8   837.74566   14  1 13   685.73214 90.0   837.74629
 13  1 13   718.59865 11.5   838.09888   14  1 13   686.08400 79.3   838.09815
 13  1 13   718.69806 85.9   838.19829   14  1 13   686.18365 84.7   838.19780
 13  1 13   719.47793 86.7   838.97816   14  1 13   686.96336 69.7   838.97751
 13  1 13   720.00724 26.8   839.50747   14  1 13   687.49235 85.9   839.50650
 13  1 13   720.01887 34.1   839.51910   14  1 13   687.50442 24.8   839.51857
 13  1 13   720.12317  0.8   839.62340   14  1 13   687.61024 78.3   839.62439
 13  1 13   720.57623 84.7   840.07646   14  1 13   688.06277 43.9   840.07692
 13  1 13   720.66723 79.5   840.16746   14  1 13   688.15327 69.6   840.16742
 13  1 13   720.78314 80.7   840.28337   14  1 13   688.26906 88.5   840.28321
 13  1 13   721.78764 89.2   841.28787   14  1 13   689.27426 88.9   841.28841
 13  1 13   722.01538 67.4   841.51561   14  1 13   689.50234 88.4   841.51649
 13  1 13   722.02210 80.6   841.52233   14  1 13   689.50863 88.9   841.52278
 13  1 13   722.90490 62.6   842.40513   14  1 13   690.39047 86.7   842.40462
 13  1 13   723.26544 87.4   842.76567   14  1 13   690.75160 89.0   842.76575
 13  1 13   723.31015 86.9   842.81038   14  1 13   690.79553 76.4   842.80968
 13  1 13   723.47045 86.0   842.97068   14  1 13   690.95741 79.2   842.97156
 13  1 13   723.76860 72.2   843.26883   14  1 13   691.25490 53.6   843.26905
 13  1 13   724.40234 88.0   843.90257   14  1 13   691.88801 68.2   843.90216
 13  1 13   724.58507 84.8   844.08530   14  1 13   692.07093 88.9   844.08508
 13  1 13   724.67515 87.4   844.17538   14  1 13   692.16089 89.9   844.17504
 13  1 13   725.43020 31.4   844.93043   14  1 13   692.91617 64.1   844.93032
 13  1 13   725.48496 50.4   844.98519   14  1 13   692.97180 64.0   844.98595
 13  1 13   725.69772 26.6   845.19795   14  1 13   693.18431 89.6   845.19846
 13  1 13   725.95820 66.0   845.45843   14  1 13   693.44504 80.9   845.45919
 13  1 13   726.15819 89.7   845.65842   14  1 13   693.64361 86.4   845.65776
 13  1 13   726.29023 75.5   845.79046   14  1 13   693.77629 87.0   845.79044
 13  1 13   726.81548 31.9   846.31571   14  1 13   694.30084 88.7   846.31499
 13  1 13   726.83646 73.8   846.33669   14  1 13   694.32236 62.9   846.33651
 13  1 13   726.92005 85.1   846.42028   14  1 13   694.40699 88.9   846.42114
 13  1 13   726.97214 75.3   846.47237   14  1 13   694.45866 51.7   846.47281
 13  1 13   727.28829 57.1   846.78852   14  1 13   694.77364 62.5   846.78779
 13  1 13   727.38134 86.1   846.88157   14  1 13   694.86709 89.1   846.88124
 13  1 13   727.45385 84.7   846.95408   14  1 13   694.94084 88.7   846.95499
 13  1 13   727.68666 78.4   847.18689   14  1 13   695.17364 89.1   847.18779
 13  1 13   727.70270 85.9   847.20293   14  1 13   695.18912 73.1   847.20327

 Searching  14  0 14 near    860.29341
 No   1:  14  1 14      137.30272  reg   717.991 -   727.991
 No   2:  15  1 14      172.44351  reg   682.850 -   692.850
 14  1 14   718.36219 84.4   855.66491   15  1 14   683.22041 31.4   855.66392
 14  1 14   718.52987 80.3   855.83259   15  1 14   683.38948 39.3   855.83299
 14  1 14   718.53591 80.4   855.83863   15  1 14   683.39540 89.3   855.83891
 14  1 14   718.66483 83.1   855.96755   15  1 14   683.52358 88.2   855.96709
 14  1 14   718.70705 74.1   856.00977   15  1 14   683.56535 87.1   856.00886
 14  1 14   718.74051 80.7   856.04323   15  1 14   683.60003 71.0   856.04354
 14  1 14   719.21749 82.3   856.52021   15  1 14   684.07718 88.8   856.52069
 14  1 14   719.47302 79.5   856.77574   15  1 14   684.33177 84.2   856.77528
 14  1 14   719.91250 65.4   857.21522   15  1 14   684.77150 85.5   857.21501
 14  1 14   720.02387  1.4   857.32659   15  1 14   684.88304 89.8   857.32655
 14  1 14   720.18080 41.4   857.48352   15  1 14   685.03974 89.3   857.48325
 14  1 14   720.39896 77.1   857.70168   15  1 14   685.25898 86.7   857.70249
 14  1 14   720.52465 77.4   857.82737   15  1 14   685.38335 44.4   857.82686
 14  1 14   720.52997  1.4   857.83269   15  1 14   685.38912 89.7   857.83263
 14  1 14   721.08574 81.2   858.38846   15  1 14   685.94474 89.7   858.38825
 14  1 14   721.32425 85.5   858.62697   15  1 14   686.18365 84.7   858.62716
 14  1 14   721.91140 76.7   859.21412   15  1 14   686.77043 88.1   859.21394
 14  1 14   721.97662 79.4   859.27934   15  1 14   686.83653 65.8   859.28004
 14  1 14   722.16530 80.8   859.46802   15  1 14   687.02535 88.4   859.46886
 14  1 14   722.53259 79.6   859.83531   15  1 14   687.39112 85.9   859.83463
 14  1 14   723.00276 80.1   860.30548   15  1 14   687.86192 45.7   860.30543
 14  1 14   723.01640 79.5   860.31912   15  1 14   687.87586 79.5   860.31937
 14  1 14   723.14128 89.2   860.44400   15  1 14   688.00110 56.4   860.44461
 14  1 14   723.25146 59.3   860.55418   15  1 14   688.11052 61.5   860.55403
 14  1 14   723.29359 52.5   860.59631   15  1 14   688.15327 69.6   860.59678
 14  1 14   723.72936 89.7   861.03208   15  1 14   688.58930 83.3   861.03281
 14  1 14   723.93909 74.7   861.24181   15  1 14   688.79929 78.7   861.24280
 14  1 14   724.48941 12.6   861.79213   15  1 14   689.34928 82.4   861.79279
 14  1 14   724.50439 88.8   861.80711   15  1 14   689.36340 23.4   861.80691
 14  1 14   724.50895 76.5   861.81167   15  1 14   689.36908 86.8   861.81259
 14  1 14   724.64368 60.4   861.94640   15  1 14   689.50234 88.4   861.94585
 14  1 14   724.77050 89.2   862.07322   15  1 14   689.62921 23.7   862.07272
 14  1 14   725.11872 87.6   862.42144   15  1 14   689.97752 30.0   862.42103
 14  1 14   725.12897 49.9   862.43169   15  1 14   689.98826 78.3   862.43177
 14  1 14   725.19818 83.7   862.50090   15  1 14   690.05667 88.9   862.50018
 14  1 14   725.52587 37.7   862.82859   15  1 14   690.38537 88.7   862.82888
 14  1 14   725.55546 86.2   862.85818   15  1 14   690.41549 83.8   862.85900
 14  1 14   725.69236 85.2   862.99508   15  1 14   690.55092 38.7   862.99443
 14  1 14   725.80029 87.7   863.10301   15  1 14   690.66005 89.1   863.10356
 14  1 14   725.93545 38.2   863.23817   15  1 14   690.79553 76.4   863.23904
 14  1 14   726.15216 11.7   863.45488   15  1 14   691.01044 63.8   863.45395
 14  1 14   726.60350 88.6   863.90622   15  1 14   691.46313 33.0   863.90664
 14  1 14   727.21096 89.9   864.51368   15  1 14   692.07093 88.9   864.51444
 14  1 14   727.86442 86.4   865.16714   15  1 14   692.72387 89.6   865.16738

 Searching  15  0 15 near    879.34030
 No   1:  15  1 15      156.33551  reg   718.005 -   728.005
 No   2:  16  1 15      194.06575  reg   680.275 -   690.275
 15  1 15   718.68040 89.0   875.01591   16  1 15   680.95041 84.2   875.01616
 15  1 15   719.12175 87.1   875.45726   16  1 15   681.39159 44.7   875.45734
 15  1 15   719.62644 77.4   875.96195   16  1 15   681.89537 15.9   875.96112
 15  1 15   719.76602 86.1   876.10153   16  1 15   682.03545 89.5   876.10120
 15  1 15   720.31130 45.5   876.64681   16  1 15   682.58127 71.7   876.64702
 15  1 15   721.68857 87.9   878.02408   16  1 15   683.95780 76.6   878.02355
 15  1 15   721.80244 89.6   878.13795   16  1 15   684.07184 85.4   878.13759
 15  1 15   722.46494 87.1   878.80045   16  1 15   684.73415 44.2   878.79990
 15  1 15   722.63114 53.7   878.96665   16  1 15   684.89995 88.6   878.96570
 15  1 15   722.78029 84.7   879.11580   16  1 15   685.05024 77.6   879.11599
 15  1 15   722.94647 80.6   879.28198   16  1 15   685.21676 31.3   879.28251
 15  1 15   722.96279 74.7   879.29830   16  1 15   685.23291 69.4   879.29866
 15  1 15   723.04183 87.6   879.37734   16  1 15   685.31074 84.1   879.37649
 15  1 15   723.59051 70.0   879.92602   16  1 15   685.86042 89.9   879.92617
 15  1 15   723.59598 82.1   879.93149   16  1 15   685.86609  4.8   879.93184
 15  1 15   723.91420 49.2   880.24971   16  1 15   686.18365 84.7   880.24940
 15  1 15   724.26050 88.2   880.59601   16  1 15   686.52984 43.0   880.59559
 15  1 15   724.30216 82.4   880.63767   16  1 15   686.57279 70.5   880.63854
 15  1 15   724.49503 83.5   880.83054   16  1 15   686.76473 46.3   880.83048
 15  1 15   724.50895 76.5   880.84446   16  1 15   686.77891 76.7   880.84466
 15  1 15   724.54597 86.6   880.88148   16  1 15   686.81668 83.9   880.88243
 15  1 15   724.56595 21.0   880.90146   16  1 15   686.83653 65.8   880.90228
 15  1 15   724.69455 86.6   881.03006   16  1 15   686.96336 69.7   881.02911
 15  1 15   724.75559 39.7   881.09110   16  1 15   687.02535 88.4   881.09110
 15  1 15   724.85823 71.3   881.19374   16  1 15   687.12769 85.3   881.19344
 15  1 15   725.08750 37.0   881.42301   16  1 15   687.35823 60.9   881.42398
 15  1 15   725.56346 88.5   881.89897   16  1 15   687.83407 71.9   881.89982
 15  1 15   725.71556 66.5   882.05107   16  1 15   687.98621 52.8   882.05196
 15  1 15   725.73040 60.8   882.06591   16  1 15   688.00110 56.4   882.06685
 15  1 15   725.99079 50.5   882.32630   16  1 15   688.26044 86.7   882.32619
 15  1 15   726.81032 87.0   883.14583   16  1 15   689.08091 88.1   883.14666
 15  1 15   726.97848 69.9   883.31399   16  1 15   689.24791 87.1   883.31366
 15  1 15   727.83875 73.2   884.17426   16  1 15   690.10760 87.8   884.17335

 Searching  16  0 16 near    899.61107
 No   1:  16  1 16      176.59725  reg   718.014 -   728.014
 No   2:  17  1 16      216.88532  reg   677.726 -   687.726
 16  1 16   718.89851 80.9   895.49576   17  1 16   678.61137 88.4   895.49669
 16  1 16   719.24214 89.0   895.83939   17  1 16   678.95499 81.9   895.84031
 16  1 16   719.33790 18.7   895.93515   17  1 16   679.04917 73.0   895.93449
 16  1 16   719.47302 79.5   896.07027   17  1 16   679.18562 75.0   896.07094
 16  1 16   719.90685  8.2   896.50410   17  1 16   679.61884 87.7   896.50416
 16  1 16   720.08537  2.0   896.68262   17  1 16   679.79825 83.5   896.68357
 16  1 16   720.37068 87.6   896.96793   17  1 16   680.08178 48.7   896.96710
 16  1 16   720.82218 89.5   897.41943   17  1 16   680.53429 68.0   897.41961
 16  1 16   720.90651 59.6   897.50376   17  1 16   680.61798 89.2   897.50330
 16  1 16   721.06111 83.6   897.65836   17  1 16   680.77236 71.6   897.65768
 16  1 16   721.46077 68.9   898.05802   17  1 16   681.17359 87.0   898.05891
 16  1 16   721.48882 85.9   898.08607   17  1 16   681.20051 45.4   898.08583
 16  1 16   721.91140 76.7   898.50865   17  1 16   681.62412 89.7   898.50944
 16  1 16   721.92231 60.1   898.51956   17  1 16   681.63489 88.2   898.52021
 16  1 16   721.95549 59.9   898.55274   17  1 16   681.66661 80.8   898.55193
 16  1 16   722.68952 89.8   899.28677   17  1 16   682.40111 79.1   899.28643
 16  1 16   723.26544 87.4   899.86269   17  1 16   682.97758 84.2   899.86290
 16  1 16   723.67667 84.3   900.27392   17  1 16   683.38948 39.3   900.27480
 16  1 16   724.56595 21.0   901.16320   17  1 16   684.27811 87.6   901.16343
 16  1 16   724.60723 21.1   901.20448   17  1 16   684.31841 82.2   901.20373
 16  1 16   724.61297 77.9   901.21022   17  1 16   684.32556 86.4   901.21088
 16  1 16   724.67515 87.4   901.27240   17  1 16   684.38743 79.2   901.27275
 16  1 16   725.12897 49.9   901.72622   17  1 16   684.84032 86.7   901.72564
 16  1 16   725.17187 88.6   901.76912   17  1 16   684.88304 89.8   901.76836
 16  1 16   725.43020 31.4   902.02745   17  1 16   685.14297 15.3   902.02829
 16  1 16   725.91703 68.5   902.51428   17  1 16   685.62909 80.9   902.51441
 16  1 16   726.01978 88.1   902.61703   17  1 16   685.73214 90.0   902.61746
 16  1 16   727.47572 88.7   904.07297   17  1 16   687.18702 22.5   904.07234

 Searching  17  0 17 near    921.10651
 No   1:  17  1 17      198.08696  reg   718.020 -   728.020
 No   2:  18  1 17      240.90787  reg   675.199 -   685.199
 17  1 17   718.74051 80.7   916.82747   18  1 17   675.91957 89.0   916.82744
 17  1 17   719.20744 86.5   917.29440   18  1 17   676.38627 89.3   917.29414
 17  1 17   719.21749 82.3   917.30445   18  1 17   676.39736 82.6   917.30523
 17  1 17   719.52630 83.1   917.61326   18  1 17   676.70510 89.9   917.61297
 17  1 17   720.12853 53.9   918.21549   18  1 17   677.30760 86.7   918.21547
 17  1 17   720.33107 82.6   918.41803   18  1 17   677.50961 87.5   918.41748
 17  1 17   720.49816 85.5   918.58512   18  1 17   677.67689 86.5   918.58476
 17  1 17   720.52997  1.4   918.61693   18  1 17   677.70816 87.8   918.61603
 17  1 17   721.56202 87.8   919.64898   18  1 17   678.74033 86.0   919.64820
 17  1 17   721.91140 76.7   919.99836   18  1 17   679.09074 75.5   919.99861
 17  1 17   722.00627 85.9   920.09323   18  1 17   679.18562 75.0   920.09349
 17  1 17   722.32607 83.1   920.41303   18  1 17   679.50486 86.9   920.41273
 17  1 17   722.71794 72.5   920.80490   18  1 17   679.89701 32.4   920.80488
 17  1 17   722.72434 60.7   920.81130   18  1 17   679.90279 89.3   920.81066
 17  1 17   723.48778 80.2   921.57474   18  1 17   680.66623 89.5   921.57410
 17  1 17   724.39301 88.9   922.47997   18  1 17   681.57260 86.3   922.48047
 17  1 17   724.44435 81.2   922.53131   18  1 17   681.62412 89.7   922.53199
 17  1 17   724.58026 86.0   922.66722   18  1 17   681.75886 78.9   922.66673
 17  1 17   724.68560 17.0   922.77256   18  1 17   681.86504 87.0   922.77291
 17  1 17   724.69455 86.6   922.78151   18  1 17   681.87459 67.9   922.78246
 17  1 17   724.97939 88.9   923.06635   18  1 17   682.15843 65.5   923.06630
 17  1 17   725.30462 34.4   923.39158   18  1 17   682.48447 89.8   923.39234
 17  1 17   725.34183 64.8   923.42879   18  1 17   682.52011 88.2   923.42798
 17  1 17   725.34612 39.1   923.43308   18  1 17   682.52604 36.3   923.43391
 17  1 17   725.43451 40.3   923.52147   18  1 17   682.61368 67.4   923.52155
 17  1 17   725.62325 28.7   923.71021   18  1 17   682.80177 89.1   923.70964
 17  1 17   725.70344 81.5   923.79040   18  1 17   682.88303 88.2   923.79090
 17  1 17   725.78040 44.1   923.86736   18  1 17   682.95969 88.9   923.86756
 17  1 17   725.81979 54.7   923.90675   18  1 17   682.99822 87.5   923.90609
 17  1 17   726.21049 62.7   924.29745   18  1 17   683.38948 39.3   924.29735
 17  1 17   726.38572 60.7   924.47268   18  1 17   683.56535 87.1   924.47322
 17  1 17   726.72524 56.2   924.81220   18  1 17   683.90479 64.1   924.81266
 17  1 17   726.81548 31.9   924.90244   18  1 17   683.99529 74.6   924.90316
 17  1 17   727.29921 89.9   925.38617   18  1 17   684.47743 83.3   925.38530

 Searching  18  0 18 near    943.82709
 No   1:  18  1 18      220.80395  reg   718.023 -   728.023
 No   2:  19  1 18      266.13869  reg   672.688 -   682.688
 18  1 18   718.60458 80.9   939.40853   19  1 18   673.26962 88.1   939.40831
 18  1 18   718.74051 80.7   939.54446   19  1 18   673.40493 85.5   939.54362
 18  1 18   718.90731 86.5   939.71126   19  1 18   673.57221 82.8   939.71090
 18  1 18   719.08381 84.7   939.88776   19  1 18   673.74894 87.4   939.88763
 18  1 18   719.12175 87.1   939.92570   19  1 18   673.78682 82.1   939.92551
 18  1 18   719.26111 87.1   940.06506   19  1 18   673.92699 82.9   940.06568
 18  1 18   720.02387  1.4   940.82782   19  1 18   674.68989 86.9   940.82858
 18  1 18   720.19676 22.2   941.00071   19  1 18   674.86274 74.6   941.00143
 18  1 18   721.66764 85.7   942.47159   19  1 18   676.33197 85.2   942.47066
 18  1 18   722.63114 53.7   943.43509   19  1 18   677.29590 80.3   943.43459
 18  1 18   723.01092 53.0   943.81487   19  1 18   677.67689 86.5   943.81558
 18  1 18   723.08552 60.8   943.88947   19  1 18   677.75166 85.9   943.89035
 18  1 18   723.91987 88.4   944.72382   19  1 18   678.58551 88.8   944.72420
 18  1 18   724.03716 86.3   944.84111   19  1 18   678.70250 43.7   944.84119
 18  1 18   724.83919 84.0   945.64314   19  1 18   679.50486 86.9   945.64355
 18  1 18   725.12351 85.4   945.92746   19  1 18   679.78876 85.0   945.92745
 18  1 18   725.43020 31.4   946.23415   19  1 18   680.09572 83.8   946.23441
 18  1 18   725.73040 60.8   946.53435   19  1 18   680.39537 50.2   946.53406
 18  1 18   725.90635 86.3   946.71030   19  1 18   680.57150  7.8   946.71019
 18  1 18   725.91221 80.4   946.71616   19  1 18   680.57732 87.7   946.71601
 18  1 18   725.95235 85.5   946.75630   19  1 18   680.61798 89.2   946.75667
 18  1 18   726.73986 89.4   947.54381   19  1 18   681.40549 60.1   947.54418
 18  1 18   727.00674 78.1   947.81069   19  1 18   681.67172 87.6   947.81041
 18  1 18   727.01676 88.8   947.82071   19  1 18   681.68181 89.7   947.82050
 18  1 18   727.61965 45.1   948.42360   19  1 18   682.28442 86.5   948.42311
 18  1 18   727.84393 83.6   948.64788   19  1 18   682.50983 38.2   948.64852

 Searching  19  0 19 near    967.77306
 No   1:  19  1 19      244.74767  reg   718.025 -   728.025
 No   2:  20  1 19      292.58218  reg   670.191 -   680.191
 19  1 19   718.40292 87.2   963.15059   20  1 19   670.56753 81.5   963.14971
 19  1 19   718.59263 88.8   963.34030   20  1 19   670.75754 89.3   963.33972
 19  1 19   718.63297 89.7   963.38064   20  1 19   670.79785 87.6   963.38003
 19  1 19   718.76302 81.0   963.51069   20  1 19   670.92757 62.6   963.50975
 19  1 19   718.83781 88.6   963.58548   20  1 19   671.00304 89.6   963.58522
 19  1 19   719.38443 88.8   964.13210   20  1 19   671.54922 71.8   964.13140
 19  1 19   719.47302 79.5   964.22069   20  1 19   671.63818 40.0   964.22036
 19  1 19   719.80485 79.3   964.55252   20  1 19   671.97108 87.4   964.55326
 19  1 19   719.93998 78.6   964.68764   20  1 19   672.10512 84.5   964.68730
 19  1 19   720.85053 65.8   965.59820   20  1 19   673.01564 63.8   965.59782
 19  1 19   721.07061 59.6   965.81828   20  1 19   673.23671 86.1   965.81889
 19  1 19   721.18229 87.9   965.92996   20  1 19   673.34874 87.7   965.93092
 19  1 19   721.49621 90.0   966.24388   20  1 19   673.66160 88.4   966.24378
 19  1 19   721.66764 85.7   966.41531   20  1 19   673.83288 84.3   966.41506
 19  1 19   722.05287 86.7   966.80054   20  1 19   674.21891 89.6   966.80109
 19  1 19   722.13281 70.4   966.88048   20  1 19   674.29895 85.5   966.88113
 19  1 19   722.15030 84.7   966.89797   20  1 19   674.31483 89.8   966.89701
 19  1 19   722.83283 79.7   967.58050   20  1 19   674.99910 84.2   967.58128
 19  1 19   723.47045 86.0   968.21812   20  1 19   675.63505  8.1   968.21723
 19  1 19   724.12858 16.3   968.87625   20  1 19   676.29354 53.6   968.87572
 19  1 19   724.39301 88.9   969.14068   20  1 19   676.55945 76.9   969.14163
 19  1 19   724.85823 71.3   969.60590   20  1 19   677.02309 83.8   969.60527
 19  1 19   725.43451 40.3   970.18218   20  1 19   677.59981 86.3   970.18199
 19  1 19   725.62325 28.7   970.37092   20  1 19   677.78779 86.3   970.36997
 19  1 19   726.01978 88.1   970.76745   20  1 19   678.18522 89.2   970.76740
 19  1 19   726.60350 88.6   971.35117   20  1 19   678.76817 89.9   971.35035
 19  1 19   726.71994 76.9   971.46761   20  1 19   678.88623 90.0   971.46841
 19  1 19   727.45385 84.7   972.20152   20  1 19   679.61884 87.7   972.20102
 19  1 19   727.47572 88.7   972.22339   20  1 19   679.64051 86.5   972.22269
 19  1 19   727.63217 88.5   972.37984   20  1 19   679.79825 83.5   972.38043
 19  1 19   727.69276 84.3   972.44043   20  1 19   679.85887 89.1   972.44105
