Range    : 1.000
Accuracy : 0.001
Control file  : C2HD3gr   
Spectrum file : s         

 Searching   2  2  0 near    774.28833
 No   1:   1  1  0        3.63042  reg   769.658 -   771.658
 No   2:   3  3  0       27.70560  reg   745.583 -   747.583
  1  1  0   769.69769 10.0   773.32811    3  3  0   745.62219 78.5   773.32779
  1  1  0   769.74724 75.4   773.37766    3  3  0   745.67260 79.0   773.37820
  1  1  0   769.75312 53.8   773.38354    3  3  0   745.67784 31.5   773.38344
  1  1  0   769.77232 77.1   773.40274    3  3  0   745.69670 73.3   773.40230
  1  1  0   769.77843 85.7   773.40885    3  3  0   745.70284 64.8   773.40844
  1  1  0   769.83647 54.2   773.46689    3  3  0   745.76157 88.3   773.46717
  1  1  0   769.87499 87.6   773.50541    3  3  0   745.80048 59.5   773.50608
  1  1  0   769.89959 11.8   773.53001    3  3  0   745.82403 50.0   773.52963
  1  1  0   770.09046 88.6   773.72088    3  3  0   746.01481 80.2   773.72041
  1  1  0   770.10833 79.4   773.73875    3  3  0   746.03277 46.2   773.73837
  1  1  0   770.27781 73.7   773.90823    3  3  0   746.20261 87.1   773.90821
  1  1  0   770.28231 25.1   773.91273    3  3  0   746.20758 85.4   773.91318
  1  1  0   770.36301 80.8   773.99343    3  3  0   746.28765 46.8   773.99325
  1  1  0   770.41207 66.2   774.04249    3  3  0   746.33744 79.6   774.04304
  1  1  0   770.42978 86.7   774.06020    3  3  0   746.35458 80.6   774.06018
  1  1  0   770.45985 87.1   774.09027    3  3  0   746.38454 36.5   774.09014
  1  1  0   770.47540 69.4   774.10582    3  3  0   746.40105 65.2   774.10665
  1  1  0   770.51413 43.3   774.14455    3  3  0   746.43916 78.2   774.14476
  1  1  0   770.52884 78.4   774.15926    3  3  0   746.45328 86.9   774.15888
  1  1  0   770.65508 76.3   774.28550    3  3  0   746.57924 67.5   774.28484
  1  1  0   770.69409 75.0   774.32451    3  3  0   746.61802 88.4   774.32362
  1  1  0   770.71463 82.0   774.34505    3  3  0   746.63956 35.9   774.34516
  1  1  0   770.72114 73.7   774.35156    3  3  0   746.64520 79.3   774.35080
  1  1  0   770.74080 51.7   774.37122    3  3  0   746.66521 38.4   774.37081
  1  1  0   770.74683 84.7   774.37725    3  3  0   746.67167 22.7   774.37727
  1  1  0   770.79628 20.5   774.42670    3  3  0   746.72054 72.5   774.42614
  1  1  0   770.89850 69.9   774.52892    3  3  0   746.82292 74.1   774.52852
  1  1  0   770.99291 61.7   774.62333    3  3  0   746.91728 76.0   774.62288
  1  1  0   771.09562 63.9   774.72604    3  3  0   747.02025 89.7   774.72585
  1  1  0   771.11124 84.5   774.74166    3  3  0   747.03563 42.0   774.74123
  1  1  0   771.11505 83.1   774.74547    3  3  0   747.04062 63.2   774.74622
  1  1  0   771.15908 88.5   774.78950    3  3  0   747.08429 88.7   774.78989
  1  1  0   771.24732 89.7   774.87774    3  3  0   747.17125 62.6   774.87685
  1  1  0   771.33185 34.0   774.96227    3  3  0   747.25574 48.6   774.96134
  1  1  0   771.33700 63.5   774.96742    3  3  0   747.26160 61.9   774.96720
  1  1  0   771.34777 85.1   774.97819    3  3  0   747.27232 52.9   774.97792
  1  1  0   771.38000 77.9   775.01042    3  3  0   747.30515 49.4   775.01075
  1  1  0   771.47793 51.2   775.10835    3  3  0   747.40222 84.5   775.10782
  1  1  0   771.48809 89.4   775.11851    3  3  0   747.41323 37.8   775.11883
  1  1  0   771.49306 75.8   775.12348    3  3  0   747.41872 83.0   775.12432
  1  1  0   771.49749 78.0   775.12791    3  3  0   747.42324 47.0   775.12884
  1  1  0   771.50627 85.8   775.13669    3  3  0   747.43190 88.2   775.13750
  1  1  0   771.52142 85.7   775.15184    3  3  0   747.44672 78.6   775.15232
  1  1  0   771.64441 68.1   775.27483    3  3  0   747.56887 85.2   775.27447
  1  1  0   771.65043 88.5   775.28085    3  3  0   747.57557 68.4   775.28117
  1  1  0   771.65549 79.0   775.28591    3  3  0   747.58028 74.4   775.28588

 Searching   3  2  1 near    778.52892
 No   1:   2  1  1        6.60191  reg   770.927 -   772.927
 No   2:   3  3  1       27.70521  reg   749.824 -   751.824
 No   3:   4  3  1       33.32670  reg   744.202 -   746.202
  2  1  1   770.95378 87.5   777.55569    3  3  1   749.84977 79.9   777.55498
  2  1  1   770.95984 81.3   777.56175    3  3  1   749.85557 87.1   777.56078
  2  1  1   770.97590 81.6   777.57781    3  3  1   749.87251 84.6   777.57772
  2  1  1   770.99291 61.7   777.59482    4  3  1   744.26858 69.8   777.59528
  2  1  1   771.01697 55.2   777.61888    3  3  1   749.91297 88.1   777.61818
  2  1  1   771.02392 57.1   777.62583    3  3  1   749.92092 49.6   777.62613
  2  1  1   771.03410 83.2   777.63601    3  3  1   749.93036 83.5   777.63557
                                          4  3  1   744.30885 38.1   777.63555
  2  1  1   771.04910 86.9   777.65101    4  3  1   744.32448 32.5   777.65118
  2  1  1   771.07856 81.8   777.68047    3  3  1   749.97435 85.8   777.67956
  2  1  1   771.10045 82.3   777.70236    3  3  1   749.99761 24.0   777.70282
  2  1  1   771.11505 83.1   777.71696    3  3  1   750.01225 41.3   777.71746
  2  1  1   771.13458 20.2   777.73649    3  3  1   750.03127 43.8   777.73648
  2  1  1   771.14845 73.8   777.75036    3  3  1   750.04615 71.9   777.75136
  2  1  1   771.15370 65.4   777.75561    3  3  1   750.05024 87.7   777.75545
  2  1  1   771.15908 88.5   777.76099    3  3  1   750.05539 88.9   777.76060
  2  1  1   771.16351 83.2   777.76542    3  3  1   750.05955 71.0   777.76476
  2  1  1   771.18589 63.6   777.78780    3  3  1   750.08287 78.9   777.78808
  2  1  1   771.22407 77.3   777.82598    3  3  1   750.12015 87.0   777.82536
  2  1  1   771.24732 89.7   777.84923    3  3  1   750.14374 62.1   777.84895
  2  1  1   771.25667 85.3   777.85858    4  3  1   744.53126 20.0   777.85796
  2  1  1   771.27924 79.4   777.88115    3  3  1   750.17540 83.7   777.88061
                                          4  3  1   744.55391 69.0   777.88061
  2  1  1   771.28486 84.2   777.88677    3  3  1   750.18088 74.3   777.88609
  2  1  1   771.31366 13.7   777.91557    4  3  1   744.58969 23.4   777.91639
  2  1  1   771.34777 85.1   777.94968    3  3  1   750.24384 53.8   777.94905
  2  1  1   771.40252 88.9   778.00443    4  3  1   744.67816 16.6   778.00486
  2  1  1   771.43167 61.6   778.03358    3  3  1   750.32763 68.4   778.03284
  2  1  1   771.43638 76.4   778.03829    3  3  1   750.33363 73.5   778.03884
  2  1  1   771.44129 69.5   778.04320    3  3  1   750.33763 84.3   778.04284
  2  1  1   771.44676 88.6   778.04867    3  3  1   750.34366 82.0   778.04887
  2  1  1   771.48809 89.4   778.09000    3  3  1   750.38451 54.9   778.08972
  2  1  1   771.49306 75.8   778.09497    3  3  1   750.38986 27.8   778.09507
  2  1  1   771.50627 85.8   778.10818    4  3  1   744.78053 62.7   778.10723
  2  1  1   771.52142 85.7   778.12333    3  3  1   750.41731 53.0   778.12252
                                          4  3  1   744.79601 82.1   778.12271
  2  1  1   771.54156 12.0   778.14347    3  3  1   750.43810 76.5   778.14331
  2  1  1   771.58688 46.2   778.18879    3  3  1   750.48441 85.8   778.18962
  2  1  1   771.65549 79.0   778.25740    4  3  1   744.93046 82.9   778.25716
  2  1  1   771.68445 88.4   778.28636    3  3  1   750.58024 85.3   778.28545
  2  1  1   771.71890 41.1   778.32081    4  3  1   744.99478 87.2   778.32148
  2  1  1   771.81057 86.2   778.41248    4  3  1   745.08480 48.6   778.41150
  2  1  1   771.86199 48.1   778.46390    3  3  1   750.75828 64.6   778.46349
  2  1  1   771.92353 85.4   778.52544    3  3  1   750.82028 47.6   778.52549
  2  1  1   771.93876 79.4   778.54067    3  3  1   750.83495 56.5   778.54016
  2  1  1   772.00304 84.9   778.60495    3  3  1   750.89995 38.0   778.60516
  2  1  1   772.02189 88.4   778.62380    4  3  1   745.29757 73.7   778.62427
  2  1  1   772.06324 72.8   778.66515    4  3  1   745.33911 69.0   778.66581
  2  1  1   772.11052 18.0   778.71243    3  3  1   751.00736 86.2   778.71257
  2  1  1   772.11669 41.5   778.71860    3  3  1   751.01310 35.0   778.71831
                                          4  3  1   745.39226 68.7   778.71896
  2  1  1   772.13418 83.3   778.73609    3  3  1   751.03085 36.8   778.73606
  2  1  1   772.21729 81.7   778.81920    3  3  1   751.11314 59.3   778.81835
  2  1  1   772.22194 80.0   778.82385    3  3  1   751.11938 35.7   778.82459
                                          4  3  1   745.49677 33.3   778.82347
  2  1  1   772.23269 89.1   778.83460    4  3  1   745.50694 79.6   778.83364
  2  1  1   772.24418 89.6   778.84609    4  3  1   745.51888 41.5   778.84558
  2  1  1   772.30238 82.7   778.90429    4  3  1   745.57852 32.2   778.90522
  2  1  1   772.32178 89.7   778.92369    3  3  1   751.21851 75.0   778.92372
  2  1  1   772.35580 26.0   778.95771    3  3  1   751.25216 43.0   778.95737
  2  1  1   772.41651 59.4   779.01842    3  3  1   751.31256 71.6   779.01777
  2  1  1   772.46192 80.3   779.06383    3  3  1   751.35791 40.0   779.06312
  2  1  1   772.46684 88.8   779.06875    4  3  1   745.74279 43.9   779.06949
  2  1  1   772.47190 79.3   779.07381    3  3  1   751.36822 85.4   779.07343
  2  1  1   772.51821 75.9   779.12012    3  3  1   751.41433 61.9   779.11954
  2  1  1   772.55965 84.6   779.16156    3  3  1   751.45572 40.6   779.16093
                                          4  3  1   745.83458 67.5   779.16128
  2  1  1   772.57042 62.3   779.17233    4  3  1   745.84487 46.5   779.17157
  2  1  1   772.57592 87.3   779.17783    4  3  1   745.85048 77.6   779.17718
  2  1  1   772.66179 82.3   779.26370    3  3  1   751.55896 60.2   779.26417
  2  1  1   772.73454 84.9   779.33645    4  3  1   746.00888 20.4   779.33558
  2  1  1   772.77757 78.3   779.37948    3  3  1   751.67481 84.3   779.38002
  2  1  1   772.79186 59.4   779.39377    3  3  1   751.68930 87.8   779.39451
  2  1  1   772.79746 66.4   779.39937    3  3  1   751.69375 87.1   779.39896
  2  1  1   772.82897 78.1   779.43088    4  3  1   746.10319 82.5   779.42989
  2  1  1   772.83434 67.2   779.43625    4  3  1   746.10857 62.2   779.43527
  2  1  1   772.84440 85.4   779.44631    4  3  1   746.11911 79.1   779.44581
  2  1  1   772.86785 89.6   779.46976    3  3  1   751.76501 48.4   779.47022
  2  1  1   772.88626 86.2   779.48817    3  3  1   751.78297 47.7   779.48818
                                          4  3  1   746.16094 88.4   779.48764
  2  1  1   772.91542 59.1   779.51733    3  3  1   751.81173 24.3   779.51694
  2  1  1   772.92883 85.0   779.53074    3  3  1   751.82555 87.6   779.53076
  3  3  1   749.84138 88.1   777.54659    4  3  1   744.22039 80.5   777.54709
  3  3  1   749.86016 88.8   777.56537    4  3  1   744.23803 78.2   777.56473
  3  3  1   749.93036 83.5   777.63557    4  3  1   744.30885 38.1   777.63555
  3  3  1   749.98010 68.9   777.68531    4  3  1   744.35772 87.4   777.68442
  3  3  1   750.02713 82.2   777.73234    4  3  1   744.40526 73.3   777.73196
  3  3  1   750.17540 83.7   777.88061    4  3  1   744.55391 69.0   777.88061
  3  3  1   750.19804 49.9   777.90325    4  3  1   744.57715 73.7   777.90385
  3  3  1   750.20437 33.5   777.90958    4  3  1   744.58195 78.1   777.90865
  3  3  1   750.28118 39.4   777.98639    4  3  1   744.65960 69.8   777.98630
  3  3  1   750.41731 53.0   778.12252    4  3  1   744.79601 82.1   778.12271
  3  3  1   750.45114 15.8   778.15635    4  3  1   744.82983 38.4   778.15653
  3  3  1   750.47100 67.5   778.17621    4  3  1   744.84907 82.7   778.17577
  3  3  1   750.52356 83.7   778.22877    4  3  1   744.90113 55.0   778.22783
  3  3  1   750.53385 22.1   778.23906    4  3  1   744.91176 87.3   778.23846
  3  3  1   750.54499 82.9   778.25020    4  3  1   744.92439 49.2   778.25109
  3  3  1   750.56227 87.0   778.26748    4  3  1   744.94106 73.3   778.26776
  3  3  1   750.60819 80.7   778.31340    4  3  1   744.98648 77.6   778.31318
  3  3  1   750.66218 88.0   778.36739    4  3  1   745.04102 83.3   778.36772
  3  3  1   750.69491 63.8   778.40012    4  3  1   745.07402 89.3   778.40072
  3  3  1   750.72922 29.6   778.43443    4  3  1   745.10749 89.9   778.43419
  3  3  1   750.85844 52.5   778.56365    4  3  1   745.23601 84.7   778.56271
  3  3  1   750.97062 17.9   778.67583    4  3  1   745.34849 59.7   778.67519
  3  3  1   751.00736 86.2   778.71257    4  3  1   745.38676 82.6   778.71346
  3  3  1   751.01310 35.0   778.71831    4  3  1   745.39226 68.7   778.71896
  3  3  1   751.01801 51.7   778.72322    4  3  1   745.39585 86.2   778.72255
  3  3  1   751.04693 88.3   778.75214    4  3  1   745.42638 87.3   778.75308
  3  3  1   751.07071 12.6   778.77592    4  3  1   745.44954 54.7   778.77624
  3  3  1   751.09855 80.7   778.80376    4  3  1   745.47618 89.4   778.80288
  3  3  1   751.24425 31.0   778.94946    4  3  1   745.62219 78.5   778.94889
  3  3  1   751.28681 44.0   778.99202    4  3  1   745.66500 63.0   778.99170
  3  3  1   751.37761 55.1   779.08282    4  3  1   745.75612 89.7   779.08282
  3  3  1   751.43645 31.3   779.14166    4  3  1   745.81510 87.3   779.14180
  3  3  1   751.45572 40.6   779.16093    4  3  1   745.83458 67.5   779.16128
  3  3  1   751.48971 65.8   779.19492    4  3  1   745.86870 88.7   779.19540
  3  3  1   751.52093 39.9   779.22614    4  3  1   745.90005 83.9   779.22675
  3  3  1   751.54053 88.4   779.24574    4  3  1   745.91938 82.1   779.24608
  3  3  1   751.54568 75.5   779.25089    4  3  1   745.92489 87.6   779.25159
  3  3  1   751.73523 64.6   779.44044    4  3  1   746.11366 11.6   779.44036
  3  3  1   751.77615 71.2   779.48136    4  3  1   746.15411 75.5   779.48081
  3  3  1   751.78297 47.7   779.48818    4  3  1   746.16094 88.4   779.48764

 Searching   4  2  2 near    784.22109
 No   1:   3  1  2       11.05245  reg   772.169 -   774.169
 No   2:   4  3  2       33.32401  reg   749.897 -   751.897
 No   3:   5  3  2       40.36522  reg   742.856 -   744.856
  3  1  2   772.19149 84.1   783.24394    4  3  2   749.92092 49.6   783.24493
  3  1  2   772.22194 80.0   783.27439    4  3  2   749.95000 77.1   783.27401
  3  1  2   772.23269 89.1   783.28514    5  3  2   742.91970 81.0   783.28492
  3  1  2   772.23918 83.8   783.29163    4  3  2   749.96680 40.6   783.29081
  3  1  2   772.26052 83.8   783.31297    4  3  2   749.98862 15.7   783.31263
  3  1  2   772.30238 82.7   783.35483    4  3  2   750.03127 43.8   783.35528
  3  1  2   772.32178 89.7   783.37423    4  3  2   750.05024 87.7   783.37425
                                          5  3  2   743.00921 89.5   783.37443
  3  1  2   772.34581 82.4   783.39826    5  3  2   743.03364 52.1   783.39886
  3  1  2   772.35580 26.0   783.40825    5  3  2   743.04329 89.3   783.40851
  3  1  2   772.39255 42.9   783.44500    4  3  2   750.12015 87.0   783.44416
  3  1  2   772.40995 28.9   783.46240    4  3  2   750.13741 62.2   783.46142
  3  1  2   772.41651 59.4   783.46896    5  3  2   743.10403 86.8   783.46925
  3  1  2   772.44039 84.7   783.49284    5  3  2   743.12860 83.8   783.49382
  3  1  2   772.44731 59.4   783.49976    4  3  2   750.17540 83.7   783.49941
  3  1  2   772.47190 79.3   783.52435    5  3  2   743.15884 77.9   783.52406
  3  1  2   772.48957 87.4   783.54202    4  3  2   750.21840 65.2   783.54241
  3  1  2   772.51821 75.9   783.57066    5  3  2   743.20464 72.5   783.56986
  3  1  2   772.52839 87.8   783.58084    5  3  2   743.21513 87.0   783.58035
  3  1  2   772.55965 84.6   783.61210    5  3  2   743.24664 54.6   783.61186
  3  1  2   772.56493 55.1   783.61738    4  3  2   750.29257 88.5   783.61658
                                          5  3  2   743.25208 81.2   783.61730
  3  1  2   772.57042 62.3   783.62287    5  3  2   743.25771 39.2   783.62293
  3  1  2   772.62095 21.2   783.67340    5  3  2   743.30831 36.4   783.67353
  3  1  2   772.66179 82.3   783.71424    4  3  2   750.38986 27.8   783.71387
  3  1  2   772.73454 84.9   783.78699    5  3  2   743.42257 43.3   783.78779
  3  1  2   772.77757 78.3   783.83002    5  3  2   743.46469 34.6   783.82991
  3  1  2   772.81498 85.1   783.86743    5  3  2   743.50210 64.0   783.86732
  3  1  2   772.83434 67.2   783.88679    4  3  2   750.56227 87.0   783.88628
  3  1  2   772.86785 89.6   783.92030    4  3  2   750.59712 66.3   783.92113
  3  1  2   772.96197 26.9   784.01442    4  3  2   750.68992 88.5   784.01393
  3  1  2   772.96703 74.3   784.01948    4  3  2   750.69491 63.8   784.01892
  3  1  2   772.99268 87.8   784.04513    4  3  2   750.72154 72.8   784.04555
  3  1  2   773.02412 26.0   784.07657    4  3  2   750.75327 32.6   784.07728
                                          5  3  2   743.71140 89.4   784.07662
  3  1  2   773.02937 84.2   784.08182    4  3  2   750.75828 64.6   784.08229
                                          5  3  2   743.71643 77.5   784.08165
  3  1  2   773.03905 83.5   784.09150    5  3  2   743.72716 81.2   784.09238
  3  1  2   773.06955 88.8   784.12200    4  3  2   750.79816 66.5   784.12217
  3  1  2   773.08115 82.9   784.13360    4  3  2   750.80946 50.8   784.13347
  3  1  2   773.09096 89.9   784.14341    4  3  2   750.82028 47.6   784.14429
  3  1  2   773.16659 23.4   784.21904    5  3  2   743.85458 70.5   784.21980
  3  1  2   773.20006 82.7   784.25251    5  3  2   743.88768 82.8   784.25290
  3  1  2   773.24254 81.4   784.29499    4  3  2   750.97062 17.9   784.29463
                                          5  3  2   743.92953 72.3   784.29475
  3  1  2   773.25907 34.3   784.31152    5  3  2   743.94603 76.7   784.31125
  3  1  2   773.35622 89.8   784.40867    4  3  2   751.08385 41.8   784.40786
  3  1  2   773.42211 78.5   784.47456    5  3  2   744.10886 49.5   784.47408
  3  1  2   773.45823 81.0   784.51068    4  3  2   751.18764 57.4   784.51165
  3  1  2   773.55831 89.8   784.61076    4  3  2   751.28681 44.0   784.61082
  3  1  2   773.64852 89.9   784.70097    4  3  2   751.37761 55.1   784.70162
  3  1  2   773.71713 22.2   784.76958    5  3  2   744.40526 73.3   784.77048
  3  1  2   773.72647 86.2   784.77892    4  3  2   751.45572 40.6   784.77973
  3  1  2   773.74214 75.5   784.79459    4  3  2   751.47014 84.8   784.79415
  3  1  2   773.82084 78.1   784.87329    5  3  2   744.50870 31.0   784.87392
  3  1  2   773.88087 57.2   784.93332    4  3  2   751.60930 84.8   784.93331
  3  1  2   773.88643 50.1   784.93888    4  3  2   751.61512 57.2   784.93913
  3  1  2   773.89614 87.9   784.94859    4  3  2   751.62461 70.3   784.94862
  3  1  2   773.91375 56.0   784.96620    5  3  2   744.60081 74.5   784.96603
  3  1  2   773.95076 67.3   785.00321    4  3  2   751.67824 84.9   785.00225
  3  1  2   773.96078 61.6   785.01323    4  3  2   751.68930 87.8   785.01331
  3  1  2   773.97272 79.1   785.02517    5  3  2   744.65960 69.8   785.02482
  3  1  2   774.07234 85.7   785.12479    5  3  2   744.76013 39.9   785.12535
  3  1  2   774.10935 79.6   785.16180    5  3  2   744.79601 82.1   785.16123
  3  1  2   774.12152 73.6   785.17397    4  3  2   751.84937 67.1   785.17338
  4  3  2   749.90754 56.8   783.23155    5  3  2   742.86609 48.6   783.23131
  4  3  2   749.91297 88.1   783.23698    5  3  2   742.87188 37.8   783.23710
  4  3  2   749.98010 68.9   783.30411    5  3  2   742.93967 77.0   783.30489
  4  3  2   749.99761 24.0   783.32162    5  3  2   742.95587 50.0   783.32109
  4  3  2   750.01225 41.3   783.33626    5  3  2   742.97150 51.0   783.33672
  4  3  2   750.04615 71.9   783.37016    5  3  2   743.00483 87.4   783.37005
  4  3  2   750.05024 87.7   783.37425    5  3  2   743.00921 89.5   783.37443
  4  3  2   750.05539 88.9   783.37940    5  3  2   743.01470 27.4   783.37992
  4  3  2   750.09394 65.1   783.41795    5  3  2   743.05354 50.2   783.41876
  4  3  2   750.17000 68.0   783.49401    5  3  2   743.12860 83.8   783.49382
  4  3  2   750.18088 74.3   783.50489    5  3  2   743.13929 55.3   783.50451
  4  3  2   750.21840 65.2   783.54241    5  3  2   743.17787 81.6   783.54309
  4  3  2   750.22998 70.1   783.55399    5  3  2   743.18919 85.1   783.55441
  4  3  2   750.28118 39.4   783.60519    5  3  2   743.24094 81.4   783.60616
  4  3  2   750.29257 88.5   783.61658    5  3  2   743.25208 81.2   783.61730
  4  3  2   750.42582 78.2   783.74983    5  3  2   743.38400 80.1   783.74922
  4  3  2   750.52920 40.7   783.85321    5  3  2   743.48727 85.1   783.85249
  4  3  2   750.62656 43.1   783.95057    5  3  2   743.58474 64.7   783.94996
  4  3  2   750.63722 51.5   783.96123    5  3  2   743.59589 85.9   783.96111
  4  3  2   750.65244 36.0   783.97645    5  3  2   743.61188 69.4   783.97710
  4  3  2   750.72922 29.6   784.05323    5  3  2   743.68775 80.2   784.05297
  4  3  2   750.75327 32.6   784.07728    5  3  2   743.71140 89.4   784.07662
  4  3  2   750.75828 64.6   784.08229    5  3  2   743.71643 77.5   784.08165
  4  3  2   750.76872 83.4   784.09273    5  3  2   743.72716 81.2   784.09238
  4  3  2   750.97062 17.9   784.29463    5  3  2   743.92953 72.3   784.29475
  4  3  2   750.98121 32.3   784.30522    5  3  2   743.94043 82.8   784.30565
  4  3  2   751.04126 39.1   784.36527    5  3  2   743.99990 62.4   784.36512
  4  3  2   751.11938 35.7   784.44339    5  3  2   744.07739 54.6   784.44261
  4  3  2   751.13812 63.4   784.46213    5  3  2   744.09628 89.6   784.46150
  4  3  2   751.16996 21.5   784.49397    5  3  2   744.12790 83.7   784.49312
  4  3  2   751.20429 74.8   784.52830    5  3  2   744.16234 52.7   784.52756
  4  3  2   751.23352 36.2   784.55753    5  3  2   744.19195 56.3   784.55717
  4  3  2   751.26154 27.7   784.58555    5  3  2   744.22039 80.5   784.58561
  4  3  2   751.26674 58.8   784.59075    5  3  2   744.22594 85.9   784.59116
  4  3  2   751.39308 81.4   784.71709    5  3  2   744.35179 37.1   784.71701
  4  3  2   751.39946 79.6   784.72347    5  3  2   744.35772 87.4   784.72294
  4  3  2   751.59610 57.2   784.92011    5  3  2   744.55391 69.0   784.91913
  4  3  2   751.81173 24.3   785.13574    5  3  2   744.77004 88.8   785.13526

 Searching   5  2  3 near    791.39272
 No   1:   4  1  3       16.97345  reg   773.419 -   775.419
 No   2:   5  3  3       40.35448  reg   750.038 -   752.038
 No   3:   6  3  3       48.83140  reg   741.561 -   743.561
  4  1  3   773.42211 78.5   790.39556    6  3  3   741.56503 11.8   790.39643
  4  1  3   773.46390 72.8   790.43735    5  3  3   750.08287 78.9   790.43735
  4  1  3   773.47004 89.6   790.44349    5  3  3   750.08828 71.5   790.44276
                                          6  3  3   741.61131 89.4   790.44271
  4  1  3   773.48721 84.8   790.46066    6  3  3   741.62966 85.3   790.46106
  4  1  3   773.50132 37.4   790.47477    5  3  3   750.12015 87.0   790.47463
  4  1  3   773.62344 62.0   790.59689    6  3  3   741.76625 82.6   790.59765
  4  1  3   773.64852 89.9   790.62197    6  3  3   741.79068 85.0   790.62208
  4  1  3   773.65960 35.3   790.63305    6  3  3   741.80123 57.8   790.63263
  4  1  3   773.67328 52.8   790.64673    5  3  3   750.29257 88.5   790.64705
  4  1  3   773.70552 61.0   790.67897    6  3  3   741.84809 81.0   790.67949
  4  1  3   773.73661 88.9   790.71006    6  3  3   741.87789 18.5   790.70929
  4  1  3   773.81081 86.4   790.78426    6  3  3   741.95288 61.7   790.78428
  4  1  3   773.96078 61.6   790.93423    5  3  3   750.58024 85.3   790.93472
                                          6  3  3   742.10266 71.6   790.93406
  4  1  3   774.02466 88.5   790.99811    5  3  3   750.64272 67.7   790.99720
                                          6  3  3   742.16604 79.7   790.99744
  4  1  3   774.10935 79.6   791.08280    5  3  3   750.72922 29.6   791.08370
  4  1  3   774.16075 86.6   791.13420    5  3  3   750.78016 83.2   791.13464
  4  1  3   774.18880 83.4   791.16225    6  3  3   742.33099 83.4   791.16239
  4  1  3   774.24319 42.5   791.21664    6  3  3   742.38547 81.2   791.21687
  4  1  3   774.25739 26.2   791.23084    5  3  3   750.87574 86.6   791.23022
  4  1  3   774.26259 73.5   791.23604    5  3  3   750.88111 75.0   791.23559
  4  1  3   774.26803 57.8   791.24148    6  3  3   742.41084 89.3   791.24224
  4  1  3   774.28228 63.2   791.25573    6  3  3   742.42458 81.9   791.25598
  4  1  3   774.34397 88.9   791.31742    6  3  3   742.48694 88.6   791.31834
  4  1  3   774.39955 57.4   791.37300    5  3  3   751.01801 51.7   791.37249
  4  1  3   774.41286 86.0   791.38631    5  3  3   751.03085 36.8   791.38533
  4  1  3   774.45676 28.0   791.43021    5  3  3   751.07548 46.9   791.42996
  4  1  3   774.46249 82.5   791.43594    6  3  3   742.60382 80.5   791.43522
  4  1  3   774.48592 81.4   791.45937    5  3  3   751.10466 22.9   791.45914
  4  1  3   774.50002 82.2   791.47347    5  3  3   751.11938 35.7   791.47386
  4  1  3   774.54362 25.0   791.51707    5  3  3   751.16301 86.5   791.51749
  4  1  3   774.60036 89.1   791.57381    5  3  3   751.21851 75.0   791.57299
  4  1  3   774.63358 80.1   791.60703    5  3  3   751.25216 43.0   791.60664
  4  1  3   774.63874 89.4   791.61219    5  3  3   751.25675 59.3   791.61123
  4  1  3   774.66716 88.5   791.64061    5  3  3   751.28681 44.0   791.64129
                                          6  3  3   742.80898 88.1   791.64038
  4  1  3   774.69380 55.3   791.66725    5  3  3   751.31256 71.6   791.66704
  4  1  3   774.70365 88.2   791.67710    5  3  3   751.32218 32.4   791.67666
  4  1  3   774.70750 81.5   791.68095    5  3  3   751.32623 22.4   791.68071
  4  1  3   774.78090 29.7   791.75435    5  3  3   751.39946 79.6   791.75394
  4  1  3   774.82387 88.7   791.79732    5  3  3   751.44296 80.3   791.79744
  4  1  3   774.83437 13.1   791.80782    6  3  3   742.97738 43.2   791.80878
  4  1  3   774.91556 85.0   791.88901    5  3  3   751.53500 46.4   791.88948
  4  1  3   774.93571 77.1   791.90916    6  3  3   743.07695 82.8   791.90835
  4  1  3   774.94114 28.7   791.91459    6  3  3   743.08326 46.2   791.91466
  4  1  3   774.98982 77.9   791.96327    5  3  3   751.60930 84.8   791.96378
  4  1  3   775.01645 61.6   791.98990    6  3  3   743.15884 77.9   791.99024
  4  1  3   775.03610 83.3   792.00955    6  3  3   743.17787 81.6   792.00927
  4  1  3   775.07969 59.8   792.05314    5  3  3   751.69940 51.9   792.05388
  4  1  3   775.08935 25.8   792.06280    5  3  3   751.70804 46.2   792.06252
  4  1  3   775.10963 65.8   792.08308    6  3  3   743.25208 81.2   792.08348
  4  1  3   775.12969 89.1   792.10314    5  3  3   751.74961 76.5   792.10409
  4  1  3   775.14033 81.6   792.11378    5  3  3   751.76009 34.8   792.11457
  4  1  3   775.15904 44.7   792.13249    6  3  3   743.30140 74.4   792.13280
  4  1  3   775.23039 30.2   792.20384    5  3  3   751.84937 67.1   792.20385
  4  1  3   775.23577 88.5   792.20922    6  3  3   743.37817 29.9   792.20957
  4  1  3   775.27955 74.3   792.25300    5  3  3   751.89884 87.3   792.25332
                                          6  3  3   743.42257 43.3   792.25397
  4  1  3   775.30262 51.4   792.27607    5  3  3   751.92207 70.9   792.27655
  4  1  3   775.41246 87.1   792.38591    5  3  3   752.03204 88.8   792.38652
  5  3  3   750.05024 87.7   790.40472    6  3  3   741.57238 78.5   790.40378
  5  3  3   750.05539 88.9   790.40987    6  3  3   741.57768 88.0   790.40908
  5  3  3   750.08828 71.5   790.44276    6  3  3   741.61131 89.4   790.44271
  5  3  3   750.17540 83.7   790.52988    6  3  3   741.69826 82.0   790.52966
  5  3  3   750.18088 74.3   790.53536    6  3  3   741.70472 50.4   790.53612
  5  3  3   750.20437 33.5   790.55885    6  3  3   741.72818 83.4   790.55958
  5  3  3   750.24384 53.8   790.59832    6  3  3   741.76625 82.6   790.59765
  5  3  3   750.29257 88.5   790.64705    6  3  3   741.81634 78.5   790.64774
  5  3  3   750.42582 78.2   790.78030    6  3  3   741.94817 62.1   790.77957
  5  3  3   750.43810 76.5   790.79258    6  3  3   741.96166 77.3   790.79306
  5  3  3   750.58024 85.3   790.93472    6  3  3   742.10266 71.6   790.93406
  5  3  3   750.59712 66.3   790.95160    6  3  3   742.12099 86.2   790.95239
  5  3  3   750.63722 51.5   790.99170    6  3  3   742.16129 47.6   790.99269
  5  3  3   750.64272 67.7   790.99720    6  3  3   742.16604 79.7   790.99744
  5  3  3   750.75828 64.6   791.11276    6  3  3   742.28107 39.3   791.11247
  5  3  3   750.76872 83.4   791.12320    6  3  3   742.29193 87.1   791.12333
  5  3  3   750.79816 66.5   791.15264    6  3  3   742.32146 48.8   791.15286
  5  3  3   750.80405 88.0   791.15853    6  3  3   742.32782 84.5   791.15922
  5  3  3   750.84159 32.8   791.19607    6  3  3   742.36547 18.3   791.19687
  5  3  3   750.91549 80.7   791.26997    6  3  3   742.43820 49.4   791.26960
  5  3  3   750.96394 54.3   791.31842    6  3  3   742.48694 88.6   791.31834
  5  3  3   750.97062 17.9   791.32510    6  3  3   742.49436 89.4   791.32576
  5  3  3   751.16996 21.5   791.52444    6  3  3   742.69226 82.3   791.52366
  5  3  3   751.17753 21.4   791.53201    6  3  3   742.70078 84.6   791.53218
  5  3  3   751.23352 36.2   791.58800    6  3  3   742.75727 42.0   791.58867
  5  3  3   751.28125 77.7   791.63573    6  3  3   742.80387 55.4   791.63527
  5  3  3   751.28681 44.0   791.64129    6  3  3   742.80898 88.1   791.64038
  5  3  3   751.29154 33.1   791.64602    6  3  3   742.81379 84.8   791.64519
  5  3  3   751.44925 77.5   791.80373    6  3  3   742.97150 51.0   791.80290
  5  3  3   751.51550 70.8   791.86998    6  3  3   743.03940 76.3   791.87080
  5  3  3   751.52093 39.9   791.87541    6  3  3   743.04329 89.3   791.87469
  5  3  3   751.54568 75.5   791.90016    6  3  3   743.06788 48.7   791.89928
  5  3  3   751.57567 39.1   791.93015    6  3  3   743.09907 79.8   791.93047
  5  3  3   751.60930 84.8   791.96378    6  3  3   743.13313 79.6   791.96453
  5  3  3   751.71836 45.0   792.07284    6  3  3   743.24094 81.4   792.07234
  5  3  3   751.73523 64.6   792.08971    6  3  3   743.25771 39.2   792.08911
  5  3  3   751.76009 34.8   792.11457    6  3  3   743.28354 41.5   792.11494
  5  3  3   751.89884 87.3   792.25332    6  3  3   743.42257 43.3   792.25397
  5  3  3   752.01730 70.9   792.37178    6  3  3   743.54009 74.6   792.37149

 Searching   6  2  4 near    800.07011
 No   1:   5  1  4       24.35254  reg   774.718 -   776.718
 No   2:   6  3  4       48.79940  reg   750.271 -   752.271
 No   3:   7  3  4       58.73950  reg   740.331 -   742.331
  5  1  4   774.71739 89.3   799.06993    6  3  4   750.27021 86.0   799.06961
  5  1  4   774.72210 88.2   799.07464    6  3  4   750.27497 80.5   799.07437
                                          7  3  4   740.33556 55.5   799.07506
  5  1  4   774.75471 86.7   799.10725    7  3  4   740.36803 34.8   799.10753
  5  1  4   774.78090 29.7   799.13344    6  3  4   750.33363 73.5   799.13303
  5  1  4   774.83437 13.1   799.18691    7  3  4   740.44766 86.1   799.18716
  5  1  4   774.88945 53.7   799.24199    7  3  4   740.50167 62.6   799.24117
  5  1  4   774.93072 73.2   799.28326    6  3  4   750.48441 85.8   799.28381
  5  1  4   774.93571 77.1   799.28825    7  3  4   740.54814 45.7   799.28764
  5  1  4   774.97523 83.5   799.32777    6  3  4   750.52920 40.7   799.32860
  5  1  4   774.98982 77.9   799.34236    7  3  4   740.60203 78.3   799.34153
  5  1  4   775.00290 75.4   799.35544    7  3  4   740.61663 85.6   799.35613
  5  1  4   775.00841 72.3   799.36095    6  3  4   750.56227 87.0   799.36167
                                          7  3  4   740.62229 47.3   799.36179
  5  1  4   775.02692 86.4   799.37946    6  3  4   750.58024 85.3   799.37964
  5  1  4   775.06422 30.9   799.41676    6  3  4   750.61773 68.9   799.41713
  5  1  4   775.08409 83.2   799.43663    6  3  4   750.63722 51.5   799.43662
  5  1  4   775.08935 25.8   799.44189    6  3  4   750.64272 67.7   799.44212
  5  1  4   775.10963 65.8   799.46217    6  3  4   750.66218 88.0   799.46158
                                          7  3  4   740.72317 79.2   799.46267
  5  1  4   775.12969 89.1   799.48223    7  3  4   740.74260 57.5   799.48210
  5  1  4   775.19597 69.5   799.54851    7  3  4   740.80908 83.3   799.54858
  5  1  4   775.21102 78.3   799.56356    7  3  4   740.82422 32.6   799.56372
  5  1  4   775.36754 68.6   799.72008    7  3  4   740.98068 70.3   799.72018
  5  1  4   775.47065 65.5   799.82319    6  3  4   751.02327 42.8   799.82267
  5  1  4   775.51683 35.7   799.86937    6  3  4   751.07071 12.6   799.87011
  5  1  4   775.52981 63.5   799.88235    6  3  4   751.08385 41.8   799.88325
  5  1  4   775.54972 88.4   799.90226    7  3  4   741.16225 21.5   799.90175
  5  1  4   775.55401 87.1   799.90655    7  3  4   741.16791 73.9   799.90741
  5  1  4   775.56166 77.7   799.91420    7  3  4   741.17395 14.3   799.91345
  5  1  4   775.59095 84.3   799.94349    6  3  4   751.14360 39.5   799.94300
  5  1  4   775.63403 84.3   799.98657    6  3  4   751.18764 57.4   799.98704
                                          7  3  4   741.24666 68.9   799.98616
  5  1  4   775.64285 85.3   799.99539    6  3  4   751.19598 63.7   799.99538
  5  1  4   775.64661 80.3   799.99915    7  3  4   741.26044 76.2   799.99994
  5  1  4   775.77431 82.2   800.12685    7  3  4   741.38730 82.8   800.12680
  5  1  4   775.79434 83.5   800.14688    6  3  4   751.34714 54.0   800.14654
                                          7  3  4   741.40654 64.7   800.14604
  5  1  4   775.83163 89.3   800.18417    7  3  4   741.44542 87.7   800.18492
  5  1  4   775.85247 27.9   800.20501    7  3  4   741.46563 88.0   800.20513
  5  1  4   775.87857 87.2   800.23111    7  3  4   741.49227 59.1   800.23177
  5  1  4   775.88389 79.6   800.23643    6  3  4   751.43645 31.3   800.23585
  5  1  4   775.92184 77.4   800.27438    6  3  4   751.47474 72.6   800.27414
  5  1  4   775.92761 64.8   800.28015    6  3  4   751.48001 79.9   800.27941
  5  1  4   775.98403 80.7   800.33657    7  3  4   741.59714 88.7   800.33664
  5  1  4   776.05655 64.1   800.40909    6  3  4   751.60930 84.8   800.40870
  5  1  4   776.07201 52.8   800.42455    6  3  4   751.62461 70.3   800.42401
  5  1  4   776.07738 83.0   800.42992    7  3  4   741.69132 76.3   800.43082
  5  1  4   776.08674 85.2   800.43928    6  3  4   751.63938 52.4   800.43878
  5  1  4   776.09203 83.4   800.44457    7  3  4   741.70472 50.4   800.44422
  5  1  4   776.09736 55.2   800.44990    6  3  4   751.65039 88.0   800.44979
  5  1  4   776.11563 86.1   800.46817    7  3  4   741.72818 83.4   800.46768
  5  1  4   776.12129 89.2   800.47383    6  3  4   751.67481 84.3   800.47421
  5  1  4   776.13670 69.3   800.48924    6  3  4   751.68930 87.8   800.48870
  5  1  4   776.15562 62.6   800.50816    6  3  4   751.70804 46.2   800.50744
  5  1  4   776.20996 87.2   800.56250    7  3  4   741.82266 84.0   800.56216
  5  1  4   776.21814 78.5   800.57068    6  3  4   751.77111 34.4   800.57051
  5  1  4   776.32869 27.8   800.68123    7  3  4   741.94203 20.8   800.68153
  5  1  4   776.34875 86.9   800.70129    7  3  4   741.96166 77.3   800.70116
  5  1  4   776.35455 72.6   800.70709    7  3  4   741.96691 72.4   800.70641
  5  1  4   776.39147 81.1   800.74401    6  3  4   751.94520 80.5   800.74460
  5  1  4   776.40476 85.3   800.75730    7  3  4   742.01731 85.2   800.75681
  5  1  4   776.42686 54.6   800.77940    7  3  4   742.03990 83.4   800.77940
  5  1  4   776.43191 75.3   800.78445    7  3  4   742.04487 61.9   800.78437
  5  1  4   776.48877 16.1   800.84131    7  3  4   742.10266 71.6   800.84216
  5  1  4   776.52804 61.1   800.88058    7  3  4   742.14193 89.7   800.88143
  5  1  4   776.59761 25.2   800.95015    6  3  4   752.15154 80.5   800.95094
  5  1  4   776.66880 86.3   801.02134    7  3  4   742.28107 39.3   801.02057
  5  1  4   776.72137 67.6   801.07391    6  3  4   752.27446 31.9   801.07386
  6  3  4   750.27497 80.5   799.07437    7  3  4   740.33556 55.5   799.07506
  6  3  4   750.42582 78.2   799.22522    7  3  4   740.48665 89.2   799.22615
  6  3  4   750.56227 87.0   799.36167    7  3  4   740.62229 47.3   799.36179
  6  3  4   750.65244 36.0   799.45184    7  3  4   740.71281 45.9   799.45231
  6  3  4   750.72922 29.6   799.52862    7  3  4   740.78975 83.2   799.52925
  6  3  4   750.75327 32.6   799.55267    7  3  4   740.81415 30.5   799.55365
  6  3  4   750.85844 52.5   799.65784    7  3  4   740.91934 29.8   799.65884
  6  3  4   750.87574 86.6   799.67514    7  3  4   740.93554 87.3   799.67504
  6  3  4   750.91549 80.7   799.71489    7  3  4   740.97464 61.6   799.71414
  6  3  4   750.98121 32.3   799.78061    7  3  4   741.04138 87.1   799.78088
  6  3  4   751.11314 59.3   799.91254    7  3  4   741.17395 14.3   799.91345
  6  3  4   751.18764 57.4   799.98704    7  3  4   741.24666 68.9   799.98616
  6  3  4   751.29154 33.1   800.09094    7  3  4   741.35069 43.7   800.09019
  6  3  4   751.29682 57.6   800.09622    7  3  4   741.35757 18.6   800.09707
  6  3  4   751.31256 71.6   800.11196    7  3  4   741.37238 78.7   800.11188
  6  3  4   751.34714 54.0   800.14654    7  3  4   741.40654 64.7   800.14604
  6  3  4   751.39308 81.4   800.19248    7  3  4   741.45265 56.4   800.19215
  6  3  4   751.39946 79.6   800.19886    7  3  4   741.45939 72.4   800.19889
  6  3  4   751.44296 80.3   800.24236    7  3  4   741.50269 70.0   800.24219
  6  3  4   751.45572 40.6   800.25512    7  3  4   741.51564 86.2   800.25514
  6  3  4   751.48001 79.9   800.27941    7  3  4   741.53941 85.8   800.27891
  6  3  4   751.48971 65.8   800.28911    7  3  4   741.55048 76.9   800.28998
  6  3  4   751.57567 39.1   800.37507    7  3  4   741.63524 26.2   800.37474
  6  3  4   751.58237 73.4   800.38177    7  3  4   741.64133 88.0   800.38083
  6  3  4   751.60930 84.8   800.40870    7  3  4   741.66843 75.6   800.40793
  6  3  4   751.67824 84.9   800.47764    7  3  4   741.73735 29.2   800.47685
  6  3  4   751.78844 44.0   800.58784    7  3  4   741.84809 81.0   800.58759
  6  3  4   751.83504 84.2   800.63444    7  3  4   741.89580 45.3   800.63530
  6  3  4   751.95043 76.7   800.74983    7  3  4   742.01128 65.7   800.75078
  6  3  4   752.06048 73.2   800.85988    7  3  4   742.12099 86.2   800.86049
  6  3  4   752.10523 49.3   800.90463    7  3  4   742.16604 79.7   800.90554
  6  3  4   752.16151 79.2   800.96091    7  3  4   742.22190 53.6   800.96140
  6  3  4   752.25213 18.0   801.05153    7  3  4   742.31125 88.7   801.05075
  6  3  4   752.26860 56.5   801.06800    7  3  4   742.32782 84.5   801.06732

 Searching   7  2  5 near    810.27161
 No   1:   6  1  5       33.17281  reg   776.099 -   778.099
 No   2:   7  3  5       58.66042  reg   750.611 -   752.611
 No   3:   8  3  5       70.10844  reg   739.163 -   741.163
  6  1  5   776.12129 89.2   809.29410    8  3  5   739.18533 51.1   809.29377
  6  1  5   776.16188 69.9   809.33470    7  3  5   750.67328 77.9   809.33370
  6  1  5   776.20996 87.2   809.38277    7  3  5   750.72154 72.8   809.38196
                                          8  3  5   739.27376 53.9   809.38220
  6  1  5   776.23703 76.4   809.40984    8  3  5   739.30208 51.1   809.41052
  6  1  5   776.28979 86.5   809.46260    8  3  5   739.35321 54.9   809.46165
  6  1  5   776.32869 27.8   809.50150    7  3  5   750.84159 32.8   809.50201
  6  1  5   776.36326 57.7   809.53607    7  3  5   750.87574 86.6   809.53616
  6  1  5   776.43721 89.9   809.61002    7  3  5   750.94995 70.5   809.61037
  6  1  5   776.45246 16.7   809.62527    7  3  5   750.96394 54.3   809.62436
  6  1  5   776.49502 86.7   809.66783    7  3  5   751.00736 86.2   809.66778
  6  1  5   776.52135 40.0   809.69416    8  3  5   739.58606 75.1   809.69450
  6  1  5   776.52804 61.1   809.70085    7  3  5   751.04126 39.1   809.70168
  6  1  5   776.55065 87.9   809.72346    8  3  5   739.61459 30.8   809.72303
  6  1  5   776.57109 82.0   809.74390    7  3  5   751.08385 41.8   809.74427
  6  1  5   776.72137 67.6   809.89418    7  3  5   751.23352 36.2   809.89394
  6  1  5   776.73281 84.6   809.90562    7  3  5   751.24425 31.0   809.90467
  6  1  5   776.84570 50.9   810.01851    7  3  5   751.35791 40.0   810.01833
  6  1  5   776.87357 86.5   810.04638    8  3  5   739.93703 80.0   810.04547
  6  1  5   776.88683 64.2   810.05964    7  3  5   751.39946 79.6   810.05988
  6  1  5   776.92200 85.6   810.09481    8  3  5   739.98675 57.1   810.09519
  6  1  5   776.94149 85.7   810.11430    8  3  5   740.00549 33.0   810.11393
  6  1  5   776.98744 72.5   810.16025    7  3  5   751.50004 83.7   810.16046
  6  1  5   777.02315 79.3   810.19596    7  3  5   751.53500 46.4   810.19542
  6  1  5   777.09190 18.4   810.26471    8  3  5   740.15703 78.7   810.26547
  6  1  5   777.16637 24.4   810.33918    7  3  5   751.67824 84.9   810.33866
                                          8  3  5   740.23055 58.4   810.33899
  6  1  5   777.22375 65.7   810.39656    7  3  5   751.73523 64.6   810.39565
  6  1  5   777.23441 73.9   810.40722    8  3  5   740.29965 76.5   810.40809
  6  1  5   777.24732 51.9   810.42013    7  3  5   751.76009 34.8   810.42051
  6  1  5   777.25817 71.4   810.43098    7  3  5   751.77111 34.4   810.43153
  6  1  5   777.27167 89.8   810.44448    8  3  5   740.33556 55.5   810.44400
  6  1  5   777.30759 88.4   810.48040    7  3  5   751.82030 66.9   810.48072
  6  1  5   777.32777 87.4   810.50058    7  3  5   751.83999 89.1   810.50041
  6  1  5   777.34558 89.5   810.51839    8  3  5   740.41064 87.9   810.51908
  6  1  5   777.35984 89.8   810.53265    8  3  5   740.42431 21.3   810.53275
  6  1  5   777.50560 87.3   810.67841    7  3  5   752.01730 70.9   810.67772
  6  1  5   777.58101 54.5   810.75382    7  3  5   752.09315 82.1   810.75357
  6  1  5   777.58672 89.7   810.75953    7  3  5   752.09896 86.5   810.75938
                                          8  3  5   740.65065 44.8   810.75909
  6  1  5   777.62281 86.3   810.79562    7  3  5   752.13458 84.0   810.79500
  6  1  5   777.63043 56.9   810.80324    8  3  5   740.69455 60.2   810.80299
  6  1  5   777.64005 89.8   810.81286    7  3  5   752.15154 80.5   810.81196
  6  1  5   777.67922 87.0   810.85203    8  3  5   740.74260 57.5   810.85104
  6  1  5   777.79518 87.6   810.96799    8  3  5   740.85990 54.0   810.96834
  6  1  5   777.87482 30.3   811.04763    7  3  5   752.38666 83.4   811.04708
  6  1  5   777.91952 35.9   811.09233    8  3  5   740.98420 78.3   811.09264
  6  1  5   777.93993 25.2   811.11274    8  3  5   741.00461 83.6   811.11305
  6  1  5   777.94943 77.7   811.12224    7  3  5   752.46214 15.6   811.12256
                                          8  3  5   741.01374 82.3   811.12218
  6  1  5   778.00514 64.6   811.17795    8  3  5   741.06882 86.1   811.17726
  6  1  5   778.06729 77.6   811.24010    8  3  5   741.13188 87.1   811.24032
  6  1  5   778.08910 62.8   811.26191    7  3  5   752.60213 83.6   811.26255
  6  1  5   778.10356 86.0   811.27637    8  3  5   741.16791 73.9   811.27635
  7  3  5   750.60819 80.7   809.26861    8  3  5   739.15990 58.2   809.26834
  7  3  5   750.61773 68.9   809.27815    8  3  5   739.16996 21.3   809.27840
  7  3  5   750.65244 36.0   809.31286    8  3  5   739.20450 68.0   809.31294
  7  3  5   750.68992 88.5   809.35034    8  3  5   739.24131 55.6   809.34975
  7  3  5   750.72154 72.8   809.38196    8  3  5   739.27376 53.9   809.38220
  7  3  5   750.76872 83.4   809.42914    8  3  5   739.32123 86.3   809.42967
  7  3  5   750.78016 83.2   809.44058    8  3  5   739.33122 70.0   809.43966
  7  3  5   750.82028 47.6   809.48070    8  3  5   739.37285 53.6   809.48129
  7  3  5   750.82990 87.2   809.49032    8  3  5   739.38181 38.5   809.49025
  7  3  5   750.89995 38.0   809.56037    8  3  5   739.45105 83.7   809.55949
  7  3  5   751.05838 36.9   809.71880    8  3  5   739.60966 62.6   809.71810
  7  3  5   751.11314 59.3   809.77356    8  3  5   739.66439 74.3   809.77283
  7  3  5   751.13812 63.4   809.79854    8  3  5   739.68941 42.1   809.79785
  7  3  5   751.25675 59.3   809.91717    8  3  5   739.80937 44.8   809.91781
  7  3  5   751.26674 58.8   809.92716    8  3  5   739.81970 18.9   809.92814
  7  3  5   751.28125 77.7   809.94167    8  3  5   739.83290 12.9   809.94134
  7  3  5   751.29154 33.1   809.95196    8  3  5   739.84412 12.4   809.95256
  7  3  5   751.44296 80.3   810.10338    8  3  5   739.99424 81.2   810.10268
  7  3  5   751.47014 84.8   810.13056    8  3  5   740.02127 12.1   810.12971
  7  3  5   751.47474 72.6   810.13516    8  3  5   740.02688 56.3   810.13532
  7  3  5   751.52093 39.9   810.18135    8  3  5   740.07346 85.4   810.18190
  7  3  5   751.53500 46.4   810.19542    8  3  5   740.08625 56.6   810.19469
  7  3  5   751.58237 73.4   810.24279    8  3  5   740.13441 34.7   810.24285
  7  3  5   751.67824 84.9   810.33866    8  3  5   740.23055 58.4   810.33899
  7  3  5   751.71836 45.0   810.37878    8  3  5   740.27124 83.2   810.37968
  7  3  5   751.78297 47.7   810.44339    8  3  5   740.33556 55.5   810.44400
  7  3  5   751.95043 76.7   810.61085    8  3  5   740.50167 62.6   810.61011
  7  3  5   751.96524 39.5   810.62566    8  3  5   740.51782 59.5   810.62626
  7  3  5   752.09896 86.5   810.75938    8  3  5   740.65065 44.8   810.75909
  7  3  5   752.16151 79.2   810.82193    8  3  5   740.71281 45.9   810.82125
  7  3  5   752.22426 88.2   810.88468    8  3  5   740.77660 87.6   810.88504
  7  3  5   752.23797 46.8   810.89839    8  3  5   740.78975 83.2   810.89819
  7  3  5   752.25213 18.0   810.91255    8  3  5   740.80359 42.7   810.91203
  7  3  5   752.30865 81.7   810.96907    8  3  5   740.85990 54.0   810.96834
  7  3  5   752.46214 15.6   811.12256    8  3  5   741.01374 82.3   811.12218
