Range    : 1.000
Accuracy : 0.001
Control file  : C2HD3gr   
Spectrum file : s         

 Searching   4  4  0 near    809.81320
 No   1:   3  3  0       27.70560  reg   781.108 -   783.108
 No   2:   5  5  0       74.60328  reg   734.210 -   736.210
  3  3  0   781.20356 52.4   808.90916    5  5  0   734.30663 88.3   808.90991
  3  3  0   781.23042 80.5   808.93602    5  5  0   734.33321 81.1   808.93649
  3  3  0   781.28070 42.7   808.98630    5  5  0   734.38235 76.2   808.98563
  3  3  0   781.30603 70.1   809.01163    5  5  0   734.40834 74.8   809.01162
  3  3  0   781.35878 48.7   809.06438    5  5  0   734.46190 59.6   809.06518
  3  3  0   781.36540 79.1   809.07100    5  5  0   734.46860 45.3   809.07188
  3  3  0   781.40522 41.3   809.11082    5  5  0   734.50843 61.0   809.11171
  3  3  0   781.42513 63.4   809.13073    5  5  0   734.52766 85.5   809.13094
  3  3  0   781.43508 17.0   809.14068    5  5  0   734.53712 85.8   809.14040
  3  3  0   781.47868 81.8   809.18428    5  5  0   734.58092 82.5   809.18420
  3  3  0   781.50625 88.8   809.21185    5  5  0   734.60778 86.2   809.21106
  3  3  0   781.54006 28.7   809.24566    5  5  0   734.64246 45.2   809.24574
  3  3  0   781.59092 61.1   809.29652    5  5  0   734.69382 80.4   809.29710
  3  3  0   781.61532 40.7   809.32092    5  5  0   734.71756 17.0   809.32084
  3  3  0   781.65625 48.0   809.36185    5  5  0   734.75885 87.8   809.36213
  3  3  0   781.68581 77.3   809.39141    5  5  0   734.78738 85.8   809.39066
  3  3  0   781.81028 86.2   809.51588    5  5  0   734.91172 81.3   809.51500
  3  3  0   782.04580 68.5   809.75140    5  5  0   735.14818 63.7   809.75146
  3  3  0   782.09915 65.8   809.80475    5  5  0   735.20181 66.5   809.80509
  3  3  0   782.10484 41.8   809.81044    5  5  0   735.20668 84.9   809.80996
  3  3  0   782.29957 87.6   810.00517    5  5  0   735.40208 82.6   810.00536
  3  3  0   782.32554 76.3   810.03114    5  5  0   735.42831 82.1   810.03159
  3  3  0   782.39087 87.1   810.09647    5  5  0   735.49327 82.3   810.09655
  3  3  0   782.40025 70.7   810.10585    5  5  0   735.50298 14.9   810.10626
  3  3  0   782.40969 84.5   810.11529    5  5  0   735.51227 46.5   810.11555
  3  3  0   782.48791 60.8   810.19351    5  5  0   735.58965 81.9   810.19293
  3  3  0   782.52045 89.6   810.22605    5  5  0   735.62254 79.7   810.22582
  3  3  0   782.55801 84.1   810.26361    5  5  0   735.66062 34.2   810.26390
  3  3  0   782.79587 89.8   810.50147    5  5  0   735.89853 84.9   810.50181
  3  3  0   782.80260 52.9   810.50820    5  5  0   735.90427 71.6   810.50755
  3  3  0   782.86999 44.9   810.57559    5  5  0   735.97268 81.0   810.57596
  3  3  0   782.90700 39.8   810.61260    5  5  0   736.01010 79.6   810.61338
  3  3  0   782.92655 83.8   810.63215    5  5  0   736.02986 82.3   810.63314
  3  3  0   782.93777 75.0   810.64337    5  5  0   736.04031 84.0   810.64359
  3  3  0   782.99947 75.8   810.70507    5  5  0   736.10174 83.8   810.70502
  3  3  0   783.01378 12.9   810.71938    5  5  0   736.11627 41.5   810.71955
  3  3  0   783.12003 74.7   810.82563    5  5  0   736.22145 66.5   810.82473
