Range    : 1.000
Accuracy : 0.001
Control file  : C2HD3gr   
Spectrum file : s         

 Searching   2  2  1 near    774.27805
 No   1:   1  1  1        3.45881  reg   769.819 -   771.819
 No   2:   2  1  1        6.60191  reg   766.676 -   768.676
 No   3:   3  3  1       27.70521  reg   745.573 -   747.573
  1  1  1   769.89959 11.8   773.35840    2  1  1   766.75744 89.2   773.35935
  1  1  1   770.00227 20.2   773.46108    3  3  1   745.75612 89.7   773.46133
  1  1  1   770.04637 27.5   773.50518    3  3  1   745.80048 59.5   773.50569
  1  1  1   770.06318 75.4   773.52199    2  1  1   766.92012 81.4   773.52203
  1  1  1   770.06732 89.6   773.52613    2  1  1   766.92520 83.5   773.52711
  1  1  1   770.09046 88.6   773.54927    3  3  1   745.84487 46.5   773.55008
  1  1  1   770.13006 77.5   773.58887    2  1  1   766.98604 69.1   773.58795
  1  1  1   770.14729 85.9   773.60610    3  3  1   745.90005 83.9   773.60526
  1  1  1   770.18618 87.8   773.64499    3  3  1   745.93936 83.9   773.64457
  1  1  1   770.19012 88.6   773.64893    3  3  1   745.94410 68.3   773.64931
  1  1  1   770.21034 55.6   773.66915    2  1  1   767.06745 53.1   773.66936
  1  1  1   770.23173 14.0   773.69054    3  3  1   745.98473 83.7   773.68994
  1  1  1   770.23866 74.7   773.69747    2  1  1   767.09604 85.2   773.69795
  1  1  1   770.25849 54.9   773.71730    2  1  1   767.11469 89.4   773.71660
  1  1  1   770.32787 82.5   773.78668    3  3  1   746.08050 81.9   773.78571
  1  1  1   770.39999 32.4   773.85880    3  3  1   746.15411 75.5   773.85932
  1  1  1   770.41207 66.2   773.87088    3  3  1   746.16568 84.7   773.87089
  1  1  1   770.41944 88.5   773.87825    3  3  1   746.17246 63.1   773.87767
  1  1  1   770.42978 86.7   773.88859    2  1  1   767.28764 50.0   773.88955
  1  1  1   770.45460 86.7   773.91341    3  3  1   746.20758 85.4   773.91279
  1  1  1   770.45985 87.1   773.91866    3  3  1   746.21278 12.5   773.91799
  1  1  1   770.46458 83.1   773.92339    3  3  1   746.21814 65.9   773.92335
  1  1  1   770.48516 84.4   773.94397    3  3  1   746.23811 81.4   773.94332
  1  1  1   770.51413 43.3   773.97294    2  1  1   767.37193 87.2   773.97384
  1  1  1   770.52884 78.4   773.98765    2  1  1   767.38593 86.9   773.98784
  1  1  1   770.59515 81.2   774.05396    2  1  1   767.45149 36.9   774.05340
  1  1  1   770.60893 73.6   774.06774    2  1  1   767.46485 85.5   774.06676
  1  1  1   770.62513 34.1   774.08394    2  1  1   767.48258 86.9   774.08449
                                          3  3  1   746.37797 80.3   774.08318
  1  1  1   770.63108 34.3   774.08989    3  3  1   746.38454 36.5   774.08975
  1  1  1   770.66675 75.2   774.12556    2  1  1   767.52356 87.7   774.12547
  1  1  1   770.67177 81.9   774.13058    2  1  1   767.52911 82.1   774.13102
  1  1  1   770.68533 84.2   774.14414    2  1  1   767.54305 85.9   774.14496
                                          3  3  1   746.43916 78.2   774.14437
  1  1  1   770.69945 76.5   774.15826    3  3  1   746.45328 86.9   774.15849
  1  1  1   770.74080 51.7   774.19961    2  1  1   767.59835 89.2   774.20026
                                          3  3  1   746.49356 81.6   774.19877
  1  1  1   770.74683 84.7   774.20564    2  1  1   767.60414 85.9   774.20605
  1  1  1   770.75310 36.1   774.21191    2  1  1   767.60927 63.2   774.21118
  1  1  1   770.75919 79.2   774.21800    3  3  1   746.51356 87.1   774.21877
  1  1  1   770.76479 75.5   774.22360    3  3  1   746.51881 36.8   774.22402
  1  1  1   770.83531 86.8   774.29412    3  3  1   746.58946 61.0   774.29467
  1  1  1   770.91761 71.1   774.37642    2  1  1   767.77373 72.0   774.37564
                                          3  3  1   746.67167 22.7   774.37688
  1  1  1   770.93758 78.9   774.39639    2  1  1   767.79497 85.9   774.39688
  1  1  1   770.95984 81.3   774.41865    2  1  1   767.81698 63.9   774.41889
  1  1  1   770.96681 83.2   774.42562    3  3  1   746.72054 72.5   774.42575
  1  1  1   770.98186 50.5   774.44067    2  1  1   767.83874 33.2   774.44065
                                          3  3  1   746.73489 81.0   774.44010
  1  1  1   771.04421 70.0   774.50302    3  3  1   746.79698 56.9   774.50219
  1  1  1   771.10045 82.3   774.55926    2  1  1   767.95821 86.7   774.56012
  1  1  1   771.10619 72.8   774.56500    2  1  1   767.96347 77.3   774.56538
  1  1  1   771.11124 84.5   774.57005    2  1  1   767.96762 81.4   774.56953
  1  1  1   771.11505 83.1   774.57386    2  1  1   767.97209 74.8   774.57400
  1  1  1   771.16351 83.2   774.62232    3  3  1   746.91728 76.0   774.62249
  1  1  1   771.18589 63.6   774.64470    2  1  1   768.04289 25.1   774.64480
  1  1  1   771.19595 84.7   774.65476    2  1  1   768.05359 83.4   774.65550
  1  1  1   771.21878 75.0   774.67759    3  3  1   746.97282 85.0   774.67803
  1  1  1   771.22407 77.3   774.68288    3  3  1   746.97861 38.7   774.68382
  1  1  1   771.22798 58.6   774.68679    2  1  1   768.08522 81.5   774.68713
  1  1  1   771.26608 51.6   774.72489    3  3  1   747.02025 89.7   774.72546
  1  1  1   771.32776 17.3   774.78657    2  1  1   768.18411 16.9   774.78602
  1  1  1   771.33700 63.5   774.79581    2  1  1   768.19318 83.2   774.79509
                                          3  3  1   747.09001 17.2   774.79522
  1  1  1   771.38000 77.9   774.83881    2  1  1   768.23784 66.3   774.83975
  1  1  1   771.38759 54.3   774.84640    2  1  1   768.24386 82.7   774.84577
                                          3  3  1   747.14019 65.3   774.84540
  1  1  1   771.41784 41.5   774.87665    3  3  1   747.17125 62.6   774.87646
  1  1  1   771.43167 61.6   774.89048    2  1  1   768.28799 42.8   774.88990
  1  1  1   771.43638 76.4   774.89519    2  1  1   768.29329 16.0   774.89520
  1  1  1   771.45316 19.8   774.91197    2  1  1   768.30961 77.7   774.91152
  1  1  1   771.48809 89.4   774.94690    3  3  1   747.24078 75.0   774.94599
  1  1  1   771.49749 78.0   774.95630    2  1  1   768.35419 47.3   774.95610
  1  1  1   771.54156 12.0   775.00037    2  1  1   768.39843 65.0   775.00034
                                          3  3  1   747.29548 74.3   775.00069
  1  1  1   771.58086 89.6   775.03967    2  1  1   768.43797 76.6   775.03988
  1  1  1   771.58688 46.2   775.04569    2  1  1   768.44332 79.7   775.04523
  1  1  1   771.62043 88.9   775.07924    2  1  1   768.47649 53.6   775.07840
  1  1  1   771.65549 79.0   775.11430    3  3  1   747.40833 89.4   775.11354
  1  1  1   771.71890 41.1   775.17771    2  1  1   768.57516 81.9   775.17707
  1  1  1   771.73718 81.3   775.19599    2  1  1   768.59439 64.5   775.19630
  1  1  1   771.74264 62.1   775.20145    2  1  1   768.59889 70.7   775.20080
  1  1  1   771.77272 79.8   775.23153    3  3  1   747.52690 65.2   775.23211
  2  1  1   766.75744 89.2   773.35935    3  3  1   745.65473 79.1   773.35994
  2  1  1   766.77513 57.5   773.37704    3  3  1   745.67260 79.0   773.37781
  2  1  1   766.78061 75.1   773.38252    3  3  1   745.67784 31.5   773.38305
  2  1  1   766.78638 14.0   773.38829    3  3  1   745.68352 71.9   773.38873
  2  1  1   766.87815 81.7   773.48006    3  3  1   745.77500 27.0   773.48021
  2  1  1   766.88375 80.5   773.48566    3  3  1   745.78050 77.2   773.48571
  2  1  1   767.08200 86.4   773.68391    3  3  1   745.97873 33.8   773.68394
  2  1  1   767.08726 58.6   773.68917    3  3  1   745.98473 83.7   773.68994
  2  1  1   767.12573 82.3   773.72764    3  3  1   746.02315 59.5   773.72836
  2  1  1   767.16720 78.4   773.76911    3  3  1   746.06473 10.1   773.76994
  2  1  1   767.20607 70.3   773.80798    3  3  1   746.10319 82.5   773.80840
  2  1  1   767.21137 75.8   773.81328    3  3  1   746.10857 62.2   773.81378
  2  1  1   767.21673 60.1   773.81864    3  3  1   746.11366 11.6   773.81887
  2  1  1   767.25826 81.9   773.86017    3  3  1   746.15411 75.5   773.85932
  2  1  1   767.28262 65.4   773.88453    3  3  1   746.18013 89.2   773.88534
  2  1  1   767.54305 85.9   774.14496    3  3  1   746.43916 78.2   774.14437
  2  1  1   767.64569 81.8   774.24760    3  3  1   746.54197 10.8   774.24718
  2  1  1   767.69823 82.1   774.30014    3  3  1   746.59483 66.0   774.30004
  2  1  1   767.71521 86.2   774.31712    3  3  1   746.61139 68.2   774.31660
  2  1  1   767.72045 70.0   774.32236    3  3  1   746.61802 88.4   774.32323
  2  1  1   767.83874 33.2   774.44065    3  3  1   746.73489 81.0   774.44010
  2  1  1   767.84674 27.1   774.44865    3  3  1   746.74378 83.5   774.44899
  2  1  1   767.86409 42.9   774.46600    3  3  1   746.76122 24.1   774.46643
  2  1  1   767.88768 55.6   774.48959    3  3  1   746.78352 35.5   774.48873
  2  1  1   767.95363 86.5   774.55554    3  3  1   746.85075 69.5   774.55596
  2  1  1   768.14335 88.2   774.74526    3  3  1   747.04062 63.2   774.74583
  2  1  1   768.19318 83.2   774.79509    3  3  1   747.09001 17.2   774.79522
  2  1  1   768.22735 89.8   774.82926    3  3  1   747.12435 81.4   774.82956
  2  1  1   768.23784 66.3   774.83975    3  3  1   747.13481 61.3   774.84002
  2  1  1   768.24386 82.7   774.84577    3  3  1   747.14019 65.3   774.84540
  2  1  1   768.36438 86.2   774.96629    3  3  1   747.26160 61.9   774.96681
  2  1  1   768.38857 80.2   774.99048    3  3  1   747.28582 27.5   774.99103
  2  1  1   768.39843 65.0   775.00034    3  3  1   747.29548 74.3   775.00069
  2  1  1   768.40832 69.9   775.01023    3  3  1   747.30515 49.4   775.01036
  2  1  1   768.43334 89.9   775.03525    3  3  1   747.33028 78.5   775.03549
  2  1  1   768.44747 89.6   775.04938    3  3  1   747.34382 70.6   775.04903
  2  1  1   768.50548 76.3   775.10739    3  3  1   747.40222 84.5   775.10743
  2  1  1   768.64331 53.0   775.24522    3  3  1   747.54094 88.3   775.24615
  2  1  1   768.67899 80.3   775.28090    3  3  1   747.57557 68.4   775.28078

 Searching   3  2  2 near    778.47774
 No   1:   2  1  2        6.08707  reg   771.391 -   773.391
 No   2:   3  1  2       11.05245  reg   766.425 -   768.425
 No   3:   4  3  2       33.32401  reg   744.154 -   746.154
  2  1  2   771.43167 61.6   777.51874    3  1  2   766.46635 47.9   777.51880
  2  1  2   771.43638 76.4   777.52345    3  1  2   766.47154 79.4   777.52399
  2  1  2   771.44129 69.5   777.52836    3  1  2   766.47653 85.6   777.52898
  2  1  2   771.44676 88.6   777.53383    3  1  2   766.48091 78.5   777.53336
  2  1  2   771.50627 85.8   777.59334    4  3  2   744.26858 69.8   777.59259
  2  1  2   771.58688 46.2   777.67395    3  1  2   766.62085 88.5   777.67330
  2  1  2   771.62043 88.9   777.70750    4  3  2   744.38286 73.3   777.70687
  2  1  2   771.71890 41.1   777.80597    3  1  2   766.75326 88.2   777.80571
  2  1  2   771.72753 77.1   777.81460    3  1  2   766.76306 79.5   777.81551
                                          4  3  2   744.49076 71.6   777.81477
  2  1  2   771.77272 79.8   777.85979    3  1  2   766.80753 79.9   777.85998
  2  1  2   771.79142 78.0   777.87849    4  3  2   744.55391 69.0   777.87792
  2  1  2   771.92353 85.4   778.01060    4  3  2   744.68620 17.3   778.01021
  2  1  2   771.93876 79.4   778.02583    3  1  2   766.97314 85.3   778.02559
  2  1  2   771.99777 86.0   778.08484    4  3  2   744.76013 39.9   778.08414
  2  1  2   772.00304 84.9   778.09011    4  3  2   744.76609 65.8   778.09010
  2  1  2   772.02189 88.4   778.10896    4  3  2   744.78565 19.8   778.10966
  2  1  2   772.03269 36.9   778.11976    3  1  2   767.06745 53.1   778.11990
                                          4  3  2   744.79601 82.1   778.12002
  2  1  2   772.09074 89.9   778.17781    3  1  2   767.12573 82.3   778.17818
  2  1  2   772.18577 87.1   778.27284    3  1  2   767.22113 86.4   778.27358
  2  1  2   772.21729 81.7   778.30436    4  3  2   744.98067 51.7   778.30468
  2  1  2   772.23269 89.1   778.31976    3  1  2   767.26776 85.6   778.32021
                                          4  3  2   744.99478 87.2   778.31879
  2  1  2   772.24418 89.6   778.33125    3  1  2   767.27788 18.6   778.33033
  2  1  2   772.30238 82.7   778.38945    4  3  2   745.06465 85.7   778.38866
  2  1  2   772.32178 89.7   778.40885    4  3  2   745.08480 48.6   778.40881
  2  1  2   772.39255 42.9   778.47962    4  3  2   745.15634 60.8   778.48035
  2  1  2   772.41651 59.4   778.50358    3  1  2   767.45149 36.9   778.50394
  2  1  2   772.44731 59.4   778.53438    3  1  2   767.48258 86.9   778.53503
  2  1  2   772.46684 88.8   778.55391    4  3  2   745.23085 82.5   778.55486
  2  1  2   772.48957 87.4   778.57664    3  1  2   767.52356 87.7   778.57601
  2  1  2   772.51821 75.9   778.60528    4  3  2   745.28051 89.7   778.60452
  2  1  2   772.57042 62.3   778.65749    3  1  2   767.60414 85.9   778.65659
                                          4  3  2   745.33307 79.4   778.65708
  2  1  2   772.57592 87.3   778.66299    4  3  2   745.33911 69.0   778.66312
  2  1  2   772.58597 82.4   778.67304    4  3  2   745.34849 59.7   778.67250
  2  1  2   772.59077 71.7   778.67784    4  3  2   745.35320 76.2   778.67721
  2  1  2   772.60117 89.0   778.68824    4  3  2   745.36355 73.3   778.68756
  2  1  2   772.60627 82.7   778.69334    3  1  2   767.64046 61.6   778.69291
  2  1  2   772.61077 42.2   778.69784    3  1  2   767.64569 81.8   778.69814
  2  1  2   772.62671 87.6   778.71378    3  1  2   767.66128 77.9   778.71373
  2  1  2   772.66688 23.3   778.75395    4  3  2   745.43084 86.9   778.75485
  2  1  2   772.73454 84.9   778.82161    4  3  2   745.49677 33.3   778.82078
  2  1  2   772.79186 59.4   778.87893    3  1  2   767.82563 80.2   778.87808
  2  1  2   772.79746 66.4   778.88453    3  1  2   767.83156 19.0   778.88401
  2  1  2   772.81498 85.1   778.90205    4  3  2   745.57852 32.2   778.90253
  2  1  2   772.82897 78.1   778.91604    3  1  2   767.86409 42.9   778.91654
  2  1  2   772.83434 67.2   778.92141    3  1  2   767.86975 53.7   778.92220
  2  1  2   772.84440 85.4   778.93147    3  1  2   767.87851 81.3   778.93096
  2  1  2   772.84952 87.4   778.93659    4  3  2   745.61334 82.9   778.93735
  2  1  2   772.86785 89.6   778.95492    3  1  2   767.90215 76.0   778.95460
  2  1  2   772.91542 59.1   779.00249    4  3  2   745.67784 31.5   779.00185
  2  1  2   772.92883 85.0   779.01590    3  1  2   767.96347 77.3   779.01592
  2  1  2   772.93834 89.9   779.02541    3  1  2   767.97209 74.8   779.02454
  2  1  2   772.99268 87.8   779.07975    4  3  2   745.75612 89.7   779.08013
  2  1  2   773.00734 57.8   779.09441    3  1  2   768.04289 25.1   779.09534
  2  1  2   773.01384 88.9   779.10091    3  1  2   768.04859 88.7   779.10104
  2  1  2   773.01834 87.0   779.10541    3  1  2   768.05359 83.4   779.10604
                                          4  3  2   745.78050 77.2   779.10451
  2  1  2   773.02937 84.2   779.11644    3  1  2   768.06444 84.4   779.11689
  2  1  2   773.08115 82.9   779.16822    4  3  2   745.84487 46.5   779.16888
  2  1  2   773.09096 89.9   779.17803    4  3  2   745.85457 87.6   779.17858
  2  1  2   773.15004 88.4   779.23711    3  1  2   768.18411 16.9   779.23656
  2  1  2   773.15931 84.7   779.24638    3  1  2   768.19318 83.2   779.24563
  2  1  2   773.25907 34.3   779.34614    3  1  2   768.29329 16.0   779.34574
  2  1  2   773.35622 89.8   779.44329    4  3  2   746.11911 79.1   779.44312
  2  1  2   773.37296 17.5   779.46003    3  1  2   768.40832 69.9   779.46077
  3  1  2   766.42476 55.3   777.47721    4  3  2   744.15261 89.6   777.47662
  3  1  2   766.50387 50.5   777.55632    4  3  2   744.23163 51.8   777.55564
  3  1  2   766.56561 76.0   777.61806    4  3  2   744.29504 58.8   777.61905
  3  1  2   766.58592 76.9   777.63837    4  3  2   744.31486 70.4   777.63887
  3  1  2   766.76306 79.5   777.81551    4  3  2   744.49076 71.6   777.81477
  3  1  2   766.78061 75.1   777.83306    4  3  2   744.50870 31.0   777.83271
  3  1  2   766.78638 14.0   777.83883    4  3  2   744.51478 74.6   777.83879
  3  1  2   766.84812 72.4   777.90057    4  3  2   744.57715 73.7   777.90116
  3  1  2   766.90707 77.6   777.95952    4  3  2   744.63477 20.7   777.95878
  3  1  2   766.94947 60.3   778.00192    4  3  2   744.67816 16.6   778.00217
  3  1  2   767.06745 53.1   778.11990    4  3  2   744.79601 82.1   778.12002
  3  1  2   767.13128 70.5   778.18373    4  3  2   744.85915 46.6   778.18316
  3  1  2   767.17316 80.6   778.22561    4  3  2   744.90113 55.0   778.22514
  3  1  2   767.18712 87.1   778.23957    4  3  2   744.91633 85.4   778.24034
  3  1  2   767.19668 21.2   778.24913    4  3  2   744.92439 49.2   778.24840
  3  1  2   767.25826 81.9   778.31071    4  3  2   744.98648 77.6   778.31049
  3  1  2   767.29766 69.8   778.35011    4  3  2   745.02559 83.9   778.34960
  3  1  2   767.60414 85.9   778.65659    4  3  2   745.33307 79.4   778.65708
  3  1  2   767.63469 35.0   778.68714    4  3  2   745.36355 73.3   778.68756
  3  1  2   767.69823 82.1   778.75068    4  3  2   745.42638 87.3   778.75039
  3  1  2   767.71521 86.2   778.76766    4  3  2   745.44406 88.7   778.76807
  3  1  2   767.72045 70.0   778.77290    4  3  2   745.44954 54.7   778.77355
  3  1  2   767.77373 72.0   778.82618    4  3  2   745.50239 88.0   778.82640
  3  1  2   767.81698 63.9   778.86943    4  3  2   745.54559 62.5   778.86960
  3  1  2   767.83874 33.2   778.89119    4  3  2   745.56735 89.7   778.89136
  3  1  2   767.94432 82.5   778.99677    4  3  2   745.67260 79.0   778.99661
  3  1  2   767.94900 84.9   779.00145    4  3  2   745.67784 31.5   779.00185
  3  1  2   767.96762 81.4   779.02007    4  3  2   745.69670 73.3   779.02071
  3  1  2   768.02856 15.3   779.08101    4  3  2   745.75612 89.7   779.08013
  3  1  2   768.22735 89.8   779.27980    4  3  2   745.95672 83.5   779.28073
  3  1  2   768.36980 64.0   779.42225    4  3  2   746.09802 78.1   779.42203

 Searching   4  2  3 near    784.06924
 No   1:   3  1  3       10.02318  reg   773.046 -   775.046
 No   2:   4  1  3       16.97345  reg   766.096 -   768.096
 No   3:   5  3  3       40.35448  reg   742.715 -   744.715
  3  1  3   773.06955 88.8   783.09273    4  1  3   766.11945 76.2   783.09290
  3  1  3   773.14508 81.0   783.16826    5  3  3   742.81379 84.8   783.16827
  3  1  3   773.15004 88.4   783.17322    5  3  3   742.81836 75.3   783.17284
  3  1  3   773.15499 89.6   783.17817    4  1  3   766.20448 30.6   783.17793
                                          5  3  3   742.82377 66.3   783.17825
  3  1  3   773.15931 84.7   783.18249    4  1  3   766.20977 58.7   783.18322
                                          5  3  3   742.82888 44.5   783.18336
  3  1  3   773.16659 23.4   783.18977    4  1  3   766.21544 84.2   783.18889
  3  1  3   773.17386 83.8   783.19704    5  3  3   742.84193 62.8   783.19641
  3  1  3   773.18436 57.9   783.20754    4  1  3   766.23462 74.7   783.20807
  3  1  3   773.21113 84.9   783.23431    4  1  3   766.26114 80.0   783.23459
  3  1  3   773.24254 81.4   783.26572    4  1  3   766.29276 48.3   783.26621
  3  1  3   773.27615 73.5   783.29933    5  3  3   742.94417 48.2   783.29865
  3  1  3   773.36147 19.7   783.38465    5  3  3   743.02939 88.7   783.38387
  3  1  3   773.41625 86.3   783.43943    4  1  3   766.46635 47.9   783.43980
  3  1  3   773.42211 78.5   783.44529    4  1  3   766.47154 79.4   783.44499
  3  1  3   773.46390 72.8   783.48708    5  3  3   743.13313 79.6   783.48761
  3  1  3   773.47004 89.6   783.49322    5  3  3   743.13929 55.3   783.49377
  3  1  3   773.52054 69.5   783.54372    5  3  3   743.18919 85.1   783.54367
  3  1  3   773.69340 85.4   783.71658    5  3  3   743.36114 83.1   783.71562
  3  1  3   773.73150 38.2   783.75468    4  1  3   766.78061 75.1   783.75406
  3  1  3   773.73661 88.9   783.75979    4  1  3   766.78638 14.0   783.75983
  3  1  3   773.74214 75.5   783.76532    4  1  3   766.79145 70.1   783.76490
  3  1  3   773.74784 87.4   783.77102    5  3  3   743.41712 88.1   783.77160
  3  1  3   773.79546 89.3   783.81864    5  3  3   743.46469 34.6   783.81917
  3  1  3   773.97272 79.1   783.99590    5  3  3   743.64128 82.6   783.99576
  3  1  3   773.99701 79.8   784.02019    5  3  3   743.66526 86.1   784.01974
  3  1  3   774.02990 36.5   784.05308    5  3  3   743.69760 66.5   784.05208
  3  1  3   774.06806 89.0   784.09124    5  3  3   743.73734 85.7   784.09181
  3  1  3   774.07695 69.0   784.10013    4  1  3   767.12573 82.3   784.09918
  3  1  3   774.08100 70.5   784.10418    4  1  3   767.13128 70.5   784.10473
  3  1  3   774.11477 65.9   784.13795    5  3  3   743.78409 16.1   784.13857
  3  1  3   774.12152 73.6   784.14470    5  3  3   743.78978 86.3   784.14426
  3  1  3   774.14612 29.2   784.16930    4  1  3   767.19668 21.2   784.17013
  3  1  3   774.15662 62.4   784.17980    4  1  3   767.20607 70.3   784.17952
  3  1  3   774.16075 86.6   784.18393    4  1  3   767.21137 75.8   784.18482
  3  1  3   774.16612 57.2   784.18930    4  1  3   767.21673 60.1   784.19018
  3  1  3   774.20931 83.4   784.23249    4  1  3   767.25826 81.9   784.23171
                                          5  3  3   743.87845 77.5   784.23293
  3  1  3   774.21926 77.6   784.24244    5  3  3   743.88768 82.8   784.24216
  3  1  3   774.22825 81.8   784.25144    4  1  3   767.27788 18.6   784.25133
  3  1  3   774.23818 20.8   784.26136    4  1  3   767.28764 50.0   784.26109
  3  1  3   774.24319 42.5   784.26637    4  1  3   767.29330 81.1   784.26675
  3  1  3   774.24855 87.7   784.27173    4  1  3   767.29766 69.8   784.27111
  3  1  3   774.27710 78.7   784.30028    5  3  3   743.94603 76.7   784.30051
  3  1  3   774.30459 89.9   784.32777    5  3  3   743.97348 67.7   784.32796
  3  1  3   774.30964 59.7   784.33282    5  3  3   743.97921 80.1   784.33369
  3  1  3   774.42364 56.6   784.44682    4  1  3   767.47285 84.7   784.44630
  3  1  3   774.44190 83.2   784.46508    4  1  3   767.49262 89.3   784.46607
  3  1  3   774.46249 82.5   784.48567    4  1  3   767.51305 63.9   784.48650
  3  1  3   774.50396 89.5   784.52714    5  3  3   744.17281 58.7   784.52729
  3  1  3   774.57850 83.8   784.60168    4  1  3   767.62846 33.7   784.60191
  3  1  3   774.60036 89.1   784.62354    5  3  3   744.26858 69.8   784.62306
  3  1  3   774.67954 75.3   784.70272    4  1  3   767.72906 66.8   784.70251
  3  1  3   774.71739 89.3   784.74057    4  1  3   767.76685 16.2   784.74030
  3  1  3   774.73678 47.6   784.75996    5  3  3   744.40526 73.3   784.75974
  3  1  3   774.78090 29.7   784.80408    4  1  3   767.83156 19.0   784.80501
  3  1  3   774.79650 74.4   784.81968    4  1  3   767.84674 27.1   784.82019
  3  1  3   774.80851 69.6   784.83169    4  1  3   767.85802 65.1   784.83147
  3  1  3   774.88945 53.7   784.91263    4  1  3   767.93956 78.2   784.91301
  3  1  3   774.96067 89.0   784.98385    5  3  3   744.62977 71.6   784.98425
  3  1  3   774.96546 85.9   784.98864    5  3  3   744.63477 20.7   784.98925
  3  1  3   774.97950 80.5   785.00268    4  1  3   768.02856 15.3   785.00201
  3  1  3   775.00290 75.4   785.02608    4  1  3   768.05359 83.4   785.02704
  3  1  3   775.03610 83.3   785.05928    4  1  3   768.08522 81.5   785.05867
  4  1  3   766.09540 78.2   783.06885    5  3  3   742.71533 57.1   783.06981
  4  1  3   766.12480 83.6   783.09825    5  3  3   742.74378 74.4   783.09826
  4  1  3   766.20448 30.6   783.17793    5  3  3   742.82377 66.3   783.17825
  4  1  3   766.20977 58.7   783.18322    5  3  3   742.82888 44.5   783.18336
  4  1  3   766.21544 84.2   783.18889    5  3  3   742.83417 87.0   783.18865
  4  1  3   766.33611 61.8   783.30956    5  3  3   742.95587 50.0   783.31035
  4  1  3   766.35158 87.8   783.32503    5  3  3   742.97150 51.0   783.32598
  4  1  3   766.40038 84.3   783.37383    5  3  3   743.02014 84.3   783.37462
  4  1  3   766.40985 78.7   783.38330    5  3  3   743.02939 88.7   783.38387
  4  1  3   766.41476 88.9   783.38821    5  3  3   743.03364 52.1   783.38812
  4  1  3   766.42476 55.3   783.39821    5  3  3   743.04329 89.3   783.39777
  4  1  3   766.43522 89.0   783.40867    5  3  3   743.05354 50.2   783.40802
  4  1  3   766.48091 78.5   783.45436    5  3  3   743.09907 79.8   783.45355
  4  1  3   766.52517 11.7   783.49862    5  3  3   743.14326 51.0   783.49774
  4  1  3   766.56561 76.0   783.53906    5  3  3   743.18389 70.9   783.53837
  4  1  3   766.58592 76.9   783.55937    5  3  3   743.20464 72.5   783.55912
  4  1  3   766.88375 80.5   783.85720    5  3  3   743.50210 64.0   783.85658
  4  1  3   766.92012 81.4   783.89357    5  3  3   743.54009 74.6   783.89457
  4  1  3   767.08726 58.6   784.06071    5  3  3   743.70686 87.5   784.06134
  4  1  3   767.14629 69.3   784.11974    5  3  3   743.76510 85.7   784.11958
  4  1  3   767.21137 75.8   784.18482    5  3  3   743.83077 74.5   784.18525
  4  1  3   767.21673 60.1   784.19018    5  3  3   743.83594 24.0   784.19042
  4  1  3   767.26776 85.6   784.24121    5  3  3   743.88768 82.8   784.24216
  4  1  3   767.28262 65.4   784.25607    5  3  3   743.90136 73.5   784.25584
  4  1  3   767.29766 69.8   784.27111    5  3  3   743.91601 82.7   784.27049
  4  1  3   767.45149 36.9   784.42494    5  3  3   744.07038 77.1   784.42486
  4  1  3   767.54305 85.9   784.51650    5  3  3   744.16234 52.7   784.51682
  4  1  3   767.67624 80.4   784.64969    5  3  3   744.29504 58.8   784.64952
  4  1  3   767.87851 81.3   784.85196    5  3  3   744.49657 83.9   784.85105
  4  1  3   767.95821 86.7   784.93166    5  3  3   744.57715 73.7   784.93163
  4  1  3   767.96347 77.3   784.93692    5  3  3   744.58195 78.1   784.93643
  4  1  3   768.08522 81.5   785.05867    5  3  3   744.70377 73.8   785.05825

 Searching   5  2  4 near    791.04562
 No   1:   4  1  4       15.26012  reg   774.785 -   776.785
 No   2:   5  1  4       24.35254  reg   765.693 -   767.693
 No   3:   6  3  4       48.79940  reg   741.246 -   743.246
  4  1  4   774.78090 29.7   790.04102    6  3  4   741.24071 36.5   790.04011
  4  1  4   774.81605 39.4   790.07617    5  1  4   765.72274 57.4   790.07528
  4  1  4   774.82387 88.7   790.08399    5  1  4   765.73212 89.5   790.08466
                                          6  3  4   741.28391 62.9   790.08331
  4  1  4   774.83437 13.1   790.09449    6  3  4   741.29495 57.9   790.09435
  4  1  4   774.85774 86.9   790.11786    5  1  4   765.76531 69.6   790.11785
  4  1  4   774.88945 53.7   790.14957    6  3  4   741.35069 43.7   790.15009
  4  1  4   774.90980 84.3   790.16992    5  1  4   765.81751 88.6   790.17005
  4  1  4   774.91556 85.0   790.17568    5  1  4   765.82263 75.9   790.17517
  4  1  4   774.93571 77.1   790.19583    5  1  4   765.84315 23.2   790.19569
  4  1  4   774.95055 30.3   790.21067    6  3  4   741.41187 31.4   790.21127
  4  1  4   775.07969 59.8   790.33981    6  3  4   741.53941 85.8   790.33881
  4  1  4   775.08409 83.2   790.34421    6  3  4   741.54519 37.2   790.34459
  4  1  4   775.08935 25.8   790.34947    6  3  4   741.55048 76.9   790.34988
  4  1  4   775.14033 81.6   790.40045    5  1  4   766.04767 85.4   790.40021
  4  1  4   775.17784 61.4   790.43796    5  1  4   766.08551 79.0   790.43805
  4  1  4   775.18830 83.3   790.44842    5  1  4   766.09540 78.2   790.44794
  4  1  4   775.21102 78.3   790.47114    5  1  4   766.11945 76.2   790.47199
  4  1  4   775.23039 30.2   790.49051    6  3  4   741.69132 76.3   790.49072
  4  1  4   775.28705 84.5   790.54717    6  3  4   741.74752 76.0   790.54692
  4  1  4   775.29783 82.3   790.55795    5  1  4   766.20448 30.6   790.55702
  4  1  4   775.30262 51.4   790.56274    5  1  4   766.20977 58.7   790.56231
  4  1  4   775.30846 89.7   790.56858    5  1  4   766.21544 84.2   790.56798
  4  1  4   775.38597 48.9   790.64609    5  1  4   766.29276 48.3   790.64530
  4  1  4   775.42595 78.4   790.68607    6  3  4   741.88701 77.7   790.68641
  4  1  4   775.47065 65.5   790.73077    5  1  4   766.37911 84.3   790.73165
  4  1  4   775.49127 80.0   790.75139    6  3  4   741.95288 61.7   790.75228
  4  1  4   775.51683 35.7   790.77695    5  1  4   766.42476 55.3   790.77730
  4  1  4   775.52468 60.1   790.78480    6  3  4   741.98599 79.9   790.78539
  4  1  4   775.52981 63.5   790.78993    6  3  4   741.98973 82.0   790.78913
  4  1  4   775.54972 88.4   790.80984    6  3  4   742.01128 65.7   790.81068
  4  1  4   775.64285 85.3   790.90297    5  1  4   766.54952 75.4   790.90206
                                          6  3  4   742.10266 71.6   790.90206
  4  1  4   775.70464 85.4   790.96476    6  3  4   742.16604 79.7   790.96544
  4  1  4   775.75559 88.9   791.01571    6  3  4   742.21679 47.9   791.01619
  4  1  4   775.79434 83.5   791.05446    5  1  4   766.70224 86.7   791.05478
  4  1  4   775.83163 89.3   791.09175    6  3  4   742.29193 87.1   791.09133
  4  1  4   775.86851 74.1   791.12863    5  1  4   766.77513 57.5   791.12767
  4  1  4   775.87351 85.9   791.13363    5  1  4   766.78061 75.1   791.13315
  4  1  4   775.87857 87.2   791.13869    5  1  4   766.78638 14.0   791.13892
  4  1  4   775.88389 79.6   791.14401    5  1  4   766.79145 70.1   791.14399
  4  1  4   775.96363 89.4   791.22375    6  3  4   742.42458 81.9   791.22398
  4  1  4   775.98403 80.7   791.24415    5  1  4   766.89220 83.5   791.24474
  4  1  4   776.09736 55.2   791.35748    6  3  4   742.55770 88.2   791.35710
  4  1  4   776.11563 86.1   791.37575    6  3  4   742.57576 86.0   791.37516
  4  1  4   776.12129 89.2   791.38141    5  1  4   767.02981 13.9   791.38235
  4  1  4   776.14265 80.2   791.40277    6  3  4   742.60382 80.5   791.40322
  4  1  4   776.15562 62.6   791.41574    6  3  4   742.61547 53.4   791.41487
  4  1  4   776.18926 84.7   791.44938    5  1  4   767.09604 85.2   791.44858
                                          6  3  4   742.65033 75.9   791.44973
  4  1  4   776.20996 87.2   791.47008    6  3  4   742.67154 64.5   791.47094
  4  1  4   776.21814 78.5   791.47826    5  1  4   767.12573 82.3   791.47827
  4  1  4   776.24821 38.0   791.50833    6  3  4   742.70908 86.8   791.50848
  4  1  4   776.28979 86.5   791.54991    5  1  4   767.19668 21.2   791.54922
  4  1  4   776.34315 67.6   791.60327    6  3  4   742.80387 55.4   791.60327
  4  1  4   776.34875 86.9   791.60887    6  3  4   742.80898 88.1   791.60838
  4  1  4   776.36326 57.7   791.62338    6  3  4   742.82377 66.3   791.62317
  4  1  4   776.37503 88.8   791.63515    5  1  4   767.28262 65.4   791.63516
  4  1  4   776.38024 82.8   791.64036    5  1  4   767.28764 50.0   791.64018
                                          6  3  4   742.84193 62.8   791.64133
  4  1  4   776.40476 85.3   791.66488    6  3  4   742.86609 48.6   791.66549
  4  1  4   776.48877 16.1   791.74889    5  1  4   767.39671 60.7   791.74925
  4  1  4   776.49502 86.7   791.75514    6  3  4   742.95587 50.0   791.75527
  4  1  4   776.62177 84.8   791.88189    5  1  4   767.52911 82.1   791.88165
                                          6  3  4   743.08326 46.2   791.88266
  4  1  4   776.66880 86.3   791.92892    6  3  4   743.12860 83.8   791.92800
  4  1  4   776.71674 87.4   791.97686    6  3  4   743.17787 81.6   791.97727
  4  1  4   776.72137 67.6   791.98149    5  1  4   767.62846 33.7   791.98100
  4  1  4   776.72753 89.3   791.98765    5  1  4   767.63469 35.0   791.98723
                                          6  3  4   743.18919 85.1   791.98859
  4  1  4   776.73281 84.6   791.99293    5  1  4   767.64046 61.6   791.99300
                                          6  3  4   743.19404 88.8   791.99344
  4  1  4   776.75310 81.0   792.01322    5  1  4   767.66128 77.9   792.01382
  5  1  4   765.85958 77.4   790.21212    6  3  4   741.41187 31.4   790.21127
  5  1  4   765.89996 85.2   790.25250    6  3  4   741.45265 56.4   790.25205
  5  1  4   765.94996 74.7   790.30250    6  3  4   741.50269 70.0   790.30209
  5  1  4   766.05861 87.9   790.41115    6  3  4   741.61131 89.4   790.41071
  5  1  4   766.08129 75.5   790.43383    6  3  4   741.63524 26.2   790.43464
  5  1  4   766.10000 87.8   790.45254    6  3  4   741.65340 37.1   790.45280
  5  1  4   766.10492 55.9   790.45746    6  3  4   741.65838 83.2   790.45778
  5  1  4   766.12480 83.6   790.47734    6  3  4   741.67723 89.8   790.47663
  5  1  4   766.24877 78.4   790.60131    6  3  4   741.80123 57.8   790.60063
  5  1  4   766.34191 56.5   790.69445    6  3  4   741.89580 45.3   790.69520
  5  1  4   766.36755 37.0   790.72009    6  3  4   741.92025 70.3   790.71965
  5  1  4   766.37346 83.4   790.72600    6  3  4   741.92720 56.7   790.72660
  5  1  4   766.40038 84.3   790.75292    6  3  4   741.95288 61.7   790.75228
  5  1  4   766.41476 88.9   790.76730    6  3  4   741.96691 72.4   790.76631
  5  1  4   766.54952 75.4   790.90206    6  3  4   742.10266 71.6   790.90206
  5  1  4   766.69600 43.8   791.04854    6  3  4   742.24923 72.4   791.04863
  5  1  4   766.72754 73.8   791.08008    6  3  4   742.28107 39.3   791.08047
  5  1  4   766.75326 88.2   791.10580    6  3  4   742.30708 87.7   791.10648
  5  1  4   766.75744 89.2   791.10998    6  3  4   742.31125 88.7   791.11065
  5  1  4   766.76306 79.5   791.11560    6  3  4   742.31584 85.7   791.11524
  5  1  4   766.77513 57.5   791.12767    6  3  4   742.32782 84.5   791.12722
  5  1  4   766.87815 81.7   791.23069    6  3  4   742.43192 87.9   791.23132
  5  1  4   766.93480 67.8   791.28734    6  3  4   742.48694 88.6   791.28634
  5  1  4   767.11004 84.2   791.46258    6  3  4   742.66241 88.7   791.46181
  5  1  4   767.17316 80.6   791.52570    6  3  4   742.72562 78.0   791.52502
  5  1  4   767.36707 87.8   791.71961    6  3  4   742.91970 81.0   791.71910
  5  1  4   767.38593 86.9   791.73847    6  3  4   742.93967 77.0   791.73907
  5  1  4   767.45149 36.9   791.80403    6  3  4   743.00483 87.4   791.80423
  5  1  4   767.52356 87.7   791.87610    6  3  4   743.07695 82.8   791.87635
  5  1  4   767.64046 61.6   791.99300    6  3  4   743.19404 88.8   791.99344
  5  1  4   767.64569 81.8   791.99823    6  3  4   743.19952 66.2   791.99892
  5  1  4   767.66128 77.9   792.01382    6  3  4   743.21513 87.0   792.01453

 Searching   6  2  5 near    799.39832
 No   1:   5  1  5       21.78938  reg   776.609 -   778.609
 No   2:   6  1  5       33.17281  reg   765.226 -   767.226
 No   3:   7  3  5       58.66042  reg   739.738 -   741.738
  5  1  5   776.59761 25.2   798.38699    6  1  5   765.21471 73.1   798.38752
  5  1  5   776.68743 85.0   798.47681    7  3  5   739.81565 39.5   798.47607
  5  1  5   776.72137 67.6   798.51075    7  3  5   739.85092 13.2   798.51134
  5  1  5   776.74217 84.9   798.53155    7  3  5   739.87161 13.3   798.53203
  5  1  5   776.75310 81.0   798.54248    6  1  5   765.36893 82.2   798.54174
  5  1  5   776.79554 62.2   798.58492    6  1  5   765.41302 23.5   798.58583
  5  1  5   776.80873 79.7   798.59811    7  3  5   739.93703 80.0   798.59745
  5  1  5   776.88683 64.2   798.67621    7  3  5   740.01648 56.5   798.67690
  5  1  5   776.89283 70.3   798.68221    6  1  5   765.51022 75.7   798.68303
                                          7  3  5   740.02127 12.1   798.68169
  5  1  5   776.91563 58.1   798.70501    7  3  5   740.04447 75.2   798.70489
  5  1  5   777.05585 70.9   798.84523    7  3  5   740.18409 65.0   798.84451
  5  1  5   777.06082 88.4   798.85020    7  3  5   740.18919 80.2   798.84961
  5  1  5   777.08120 89.8   798.87058    6  1  5   765.69871 33.3   798.87152
                                          7  3  5   740.20953 77.3   798.86995
  5  1  5   777.11490 55.1   798.90428    6  1  5   765.73212 89.5   798.90493
  5  1  5   777.24732 51.9   799.03670    6  1  5   765.86461 27.5   799.03742
  5  1  5   777.25817 71.4   799.04755    6  1  5   765.87533 84.9   799.04814
  5  1  5   777.29449 77.2   799.08387    7  3  5   740.42431 21.3   799.08473
  5  1  5   777.31761 87.6   799.10699    6  1  5   765.93334 72.6   799.10615
  5  1  5   777.38980 88.8   799.17918    7  3  5   740.51782 59.5   799.17824
  5  1  5   777.40542 76.0   799.19480    7  3  5   740.53383 33.0   799.19425
  5  1  5   777.41839 60.3   799.20777    7  3  5   740.54814 45.7   799.20856
  5  1  5   777.42808 75.2   799.21746    7  3  5   740.55755 76.7   799.21797
  5  1  5   777.52079 78.7   799.31017    7  3  5   740.65065 44.8   799.31107
  5  1  5   777.53457 88.1   799.32395    7  3  5   740.66399 61.7   799.32441
  5  1  5   777.56136 84.9   799.35074    6  1  5   766.17745 82.1   799.35026
                                          7  3  5   740.68941 67.2   799.34983
  5  1  5   777.57193 59.5   799.36131    7  3  5   740.70128 82.0   799.36170
  5  1  5   777.66127 86.4   799.45065    6  1  5   766.27716 80.9   799.44997
                                          7  3  5   740.78975 83.2   799.45017
  5  1  5   777.66620 77.1   799.45558    6  1  5   766.28280 69.5   799.45561
                                          7  3  5   740.79446 77.8   799.45488
  5  1  5   777.67922 87.0   799.46860    7  3  5   740.80908 83.3   799.46950
  5  1  5   777.70222 82.6   799.49160    6  1  5   766.31814 80.7   799.49095
  5  1  5   777.74084 86.7   799.53022    6  1  5   766.35648 88.9   799.52929
  5  1  5   777.80199 22.7   799.59137    6  1  5   766.41939 87.2   799.59220
  5  1  5   777.81899 60.0   799.60837    6  1  5   766.43522 89.0   799.60803
  5  1  5   777.85118 87.8   799.64056    7  3  5   740.98068 70.3   799.64110
  5  1  5   777.87482 30.3   799.66420    7  3  5   741.00461 83.6   799.66503
  5  1  5   777.90877 82.9   799.69815    6  1  5   766.52517 11.7   799.69798
  5  1  5   777.93449 88.9   799.72387    7  3  5   741.06363 89.7   799.72405
  5  1  5   777.93993 25.2   799.72931    7  3  5   741.06882 86.1   799.72924
  5  1  5   777.94943 77.7   799.73881    6  1  5   766.56561 76.0   799.73842
  5  1  5   777.98454 82.6   799.77392    7  3  5   741.11329 87.5   799.77371
  5  1  5   778.00514 64.6   799.79452    6  1  5   766.62085 88.5   799.79366
  5  1  5   778.06065 12.8   799.85003    7  3  5   741.18901 88.8   799.84943
  5  1  5   778.07914 14.6   799.86852    6  1  5   766.69600 43.8   799.86881
  5  1  5   778.08517 65.5   799.87455    6  1  5   766.70224 86.7   799.87505
  5  1  5   778.10356 86.0   799.89294    7  3  5   741.23159 70.5   799.89201
  5  1  5   778.13212 59.7   799.92150    7  3  5   741.26044 76.2   799.92086
  5  1  5   778.15758 43.9   799.94696    6  1  5   766.77513 57.5   799.94794
  5  1  5   778.16457 86.4   799.95395    6  1  5   766.78061 75.1   799.95342
  5  1  5   778.17870 84.3   799.96808    6  1  5   766.79605 89.2   799.96886
  5  1  5   778.19541 68.9   799.98479    7  3  5   741.32496 73.6   799.98538
  5  1  5   778.20783 88.8   799.99721    6  1  5   766.82354 85.5   799.99635
  5  1  5   778.40950 88.9   800.19888    7  3  5   741.53941 85.8   800.19983
  5  1  5   778.44330 52.6   800.23268    7  3  5   741.57238 78.5   800.23280
  5  1  5   778.49487 88.9   800.28425    7  3  5   741.62415 50.9   800.28457
  5  1  5   778.50150 47.0   800.29088    7  3  5   741.62966 85.3   800.29008
  5  1  5   778.56185 68.4   800.35123    7  3  5   741.69132 76.3   800.35174
  5  1  5   778.57653 66.1   800.36591    7  3  5   741.70472 50.4   800.36514
  5  1  5   778.59885 81.5   800.38823    7  3  5   741.72818 83.4   800.38860
  6  1  5   765.29765 83.7   798.47046    7  3  5   739.80937 44.8   798.46979
  6  1  5   765.30257 67.2   798.47538    7  3  5   739.81565 39.5   798.47607
  6  1  5   765.43438 75.6   798.60719    7  3  5   739.94764 43.7   798.60806
  6  1  5   765.48166 81.1   798.65447    7  3  5   739.99424 81.2   798.65466
  6  1  5   765.57407 60.7   798.74688    7  3  5   740.08625 56.6   798.74667
  6  1  5   765.62169 89.7   798.79450    7  3  5   740.13441 34.7   798.79483
  6  1  5   765.75010 79.8   798.92291    7  3  5   740.26170 41.4   798.92212
  6  1  5   765.76531 69.6   798.93812    7  3  5   740.27838 43.4   798.93880
  6  1  5   765.82263 75.9   798.99544    7  3  5   740.33556 55.5   798.99598
  6  1  5   765.83633 48.3   799.00914    7  3  5   740.34872 79.8   799.00914
  6  1  5   765.94996 74.7   799.12277    7  3  5   740.46254 71.8   799.12296
  6  1  5   765.97454 83.9   799.14735    7  3  5   740.48665 89.2   799.14707
  6  1  5   765.98445 21.0   799.15726    7  3  5   740.49591 15.0   799.15633
  6  1  5   765.98965 85.1   799.16246    7  3  5   740.50167 62.6   799.16209
  6  1  5   766.08996 87.1   799.26277    7  3  5   740.60203 78.3   799.26245
  6  1  5   766.09540 78.2   799.26821    7  3  5   740.60755 82.4   799.26797
  6  1  5   766.10492 55.9   799.27773    7  3  5   740.61663 85.6   799.27705
  6  1  5   766.17745 82.1   799.35026    7  3  5   740.68941 67.2   799.34983
  6  1  5   766.23462 74.7   799.40743    7  3  5   740.74751 63.8   799.40793
  6  1  5   766.27716 80.9   799.44997    7  3  5   740.78975 83.2   799.45017
  6  1  5   766.28280 69.5   799.45561    7  3  5   740.79446 77.8   799.45488
  6  1  5   766.30265 87.6   799.47546    7  3  5   740.81415 30.5   799.47457
  6  1  5   766.34718 86.0   799.51999    7  3  5   740.85990 54.0   799.52032
  6  1  5   766.37911 84.3   799.55192    7  3  5   740.89136 46.2   799.55178
  6  1  5   766.40038 84.3   799.57319    7  3  5   740.91214 40.5   799.57256
  6  1  5   766.47154 79.4   799.64435    7  3  5   740.98420 78.3   799.64462
  6  1  5   766.57805 82.8   799.75086    7  3  5   741.08951 89.9   799.74993
  6  1  5   766.64209 30.2   799.81490    7  3  5   741.15544 74.1   799.81586
  6  1  5   766.72754 73.8   799.90035    7  3  5   741.24071 36.5   799.90113
  6  1  5   766.73466 84.3   799.90747    7  3  5   741.24666 68.9   799.90708
  6  1  5   766.74737 22.0   799.92018    7  3  5   741.26044 76.2   799.92086
  6  1  5   766.80753 79.9   799.98034    7  3  5   741.32031 51.3   799.98073
  6  1  5   766.92012 81.4   800.09293    7  3  5   741.43169 59.9   800.09211
  6  1  5   766.93941 46.2   800.11222    7  3  5   741.45265 56.4   800.11307
  6  1  5   766.97314 85.3   800.14595    7  3  5   741.48483 76.6   800.14525
  6  1  5   767.14629 69.3   800.31910    7  3  5   741.65838 83.2   800.31880
  6  1  5   767.21137 75.8   800.38418    7  3  5   741.72347 70.4   800.38389
  6  1  5   767.21673 60.1   800.38954    7  3  5   741.72818 83.4   800.38860
  6  1  5   767.23101 88.5   800.40382    7  3  5   741.74257 66.6   800.40299

 Searching   7  2  6 near    809.11722
 No   1:   6  1  6       29.60161  reg   778.516 -   780.516
 No   2:   7  1  6       43.41200  reg   764.705 -   766.705
 No   3:   8  3  6       69.93746  reg   738.180 -   740.180
  6  1  6   778.57653 66.1   808.17814    8  3  6   738.24086 82.1   808.17832
  6  1  6   778.62496 88.3   808.22657    8  3  6   738.28833 67.8   808.22579
  6  1  6   778.64914 85.7   808.25075    7  1  6   764.83807 62.7   808.25007
                                          8  3  6   738.31311 70.3   808.25057
  6  1  6   778.66467 77.2   808.26628    7  1  6   764.85514 89.9   808.26714
  6  1  6   778.67691 43.1   808.27852    7  1  6   764.86620 73.0   808.27820
                                          8  3  6   738.34056 84.1   808.27802
  6  1  6   778.68396 53.7   808.28557    8  3  6   738.34896 85.6   808.28642
  6  1  6   778.69760 67.7   808.29921    8  3  6   738.36105 39.1   808.29851
  6  1  6   778.72660 17.1   808.32821    7  1  6   764.91610 85.2   808.32810
  6  1  6   778.76013 89.1   808.36174    8  3  6   738.42431 70.9   808.36177
  6  1  6   778.78078 67.8   808.38239    8  3  6   738.44525 85.6   808.38271
  6  1  6   778.78609 52.2   808.38770    7  1  6   764.97595 78.0   808.38796
                                          8  3  6   738.44975 83.0   808.38721
  6  1  6   778.81542 72.1   808.41703    7  1  6   765.00452 80.3   808.41652
                                          8  3  6   738.47895 83.2   808.41641
  6  1  6   778.84074 86.8   808.44235    7  1  6   765.02971 65.8   808.44171
  6  1  6   778.84551 86.9   808.44712    8  3  6   738.51022 41.4   808.44768
  6  1  6   778.86143 72.2   808.46304    7  1  6   765.05018 11.2   808.46218
                                          8  3  6   738.52510 74.9   808.46256
  6  1  6   778.86687 11.9   808.46848    7  1  6   765.05578 58.9   808.46778
                                          8  3  6   738.53176 73.3   808.46922
  6  1  6   778.87824 84.9   808.47985    7  1  6   765.06775 27.6   808.47975
  6  1  6   778.91232 87.1   808.51393    7  1  6   765.10269 82.7   808.51469
                                          8  3  6   738.57697 77.5   808.51443
  6  1  6   778.94924 79.1   808.55085    7  1  6   765.13793 73.5   808.54993
  6  1  6   778.95425 87.6   808.55586    7  1  6   765.14315 28.9   808.55515
  6  1  6   778.96374 86.8   808.56535    8  3  6   738.62752 60.7   808.56498
  6  1  6   779.04696 89.7   808.64857    7  1  6   765.23663 81.2   808.64863
                                          8  3  6   738.71205 89.6   808.64951
  6  1  6   779.05257 68.6   808.65418    7  1  6   765.24228 76.4   808.65428
  6  1  6   779.06151 82.9   808.66313    8  3  6   738.72660 79.8   808.66406
  6  1  6   779.10927 56.1   808.71088    8  3  6   738.77304 73.1   808.71050
  6  1  6   779.11430 86.3   808.71591    8  3  6   738.77874 80.3   808.71620
  6  1  6   779.11997 17.4   808.72158    8  3  6   738.78464 81.6   808.72210
  6  1  6   779.32022 88.8   808.92183    7  1  6   765.51022 75.7   808.92222
                                          8  3  6   738.98450 87.2   808.92196
  6  1  6   779.35327 13.8   808.95488    7  1  6   765.54248 59.4   808.95448
                                          8  3  6   739.01797 39.2   808.95543
  6  1  6   779.36411 73.7   808.96572    7  1  6   765.55380 84.4   808.96580
  6  1  6   779.37828 87.0   808.97989    7  1  6   765.56732 78.3   808.97932
  6  1  6   779.39209 56.1   808.99370    8  3  6   739.05560 57.4   808.99306
  6  1  6   779.40834 87.3   809.00995    7  1  6   765.59747 60.5   809.00947
                                          8  3  6   739.07321 87.0   809.01067
  6  1  6   779.43284 74.7   809.03445    7  1  6   765.62169 89.7   809.03369
  6  1  6   779.44057 83.3   809.04218    7  1  6   765.63055 85.9   809.04255
                                          8  3  6   739.10459 74.2   809.04205
  6  1  6   779.47563 75.2   809.07724    7  1  6   765.66425 50.8   809.07625
                                          8  3  6   739.13907 44.7   809.07653
  6  1  6   779.48573 50.3   809.08734    8  3  6   739.14894 70.8   809.08640
  6  1  6   779.49128 72.7   809.09289    7  1  6   765.68072 17.2   809.09272
  6  1  6   779.50592 80.3   809.10753    8  3  6   739.16996 21.3   809.10742
  6  1  6   779.53480 77.2   809.13641    8  3  6   739.19930 14.7   809.13676
  6  1  6   779.54234 63.4   809.14395    7  1  6   765.73212 89.5   809.14412
  6  1  6   779.55624 24.1   809.15785    7  1  6   765.74561 71.9   809.15761
  6  1  6   779.57008 82.1   809.17169    7  1  6   765.76009 11.9   809.17209
  6  1  6   779.60855 85.3   809.21016    7  1  6   765.79880 62.0   809.21080
  6  1  6   779.62796 43.5   809.22957    7  1  6   765.81751 88.6   809.22951
  6  1  6   779.63342 79.8   809.23503    7  1  6   765.82263 75.9   809.23463
  6  1  6   779.65636 73.8   809.25797    8  3  6   739.32123 86.3   809.25869
  6  1  6   779.67051 83.8   809.27212    7  1  6   765.85958 77.4   809.27158
  6  1  6   779.74930 82.5   809.35091    7  1  6   765.93794 86.7   809.34994
  6  1  6   779.85263 74.6   809.45424    7  1  6   766.04190 27.6   809.45390
  6  1  6   779.88635 19.7   809.48796    7  1  6   766.07550 43.6   809.48750
  6  1  6   779.91124 29.9   809.51285    7  1  6   766.10000 87.8   809.51200
  6  1  6   779.95016 81.5   809.55177    8  3  6   739.61459 30.8   809.55205
  6  1  6   779.95660 27.5   809.55821    8  3  6   739.62089 68.9   809.55835
  6  1  6   780.06743 83.8   809.66904    8  3  6   739.73069 70.0   809.66815
  6  1  6   780.13406 84.9   809.73567    7  1  6   766.32293 84.8   809.73493
  6  1  6   780.21059 84.9   809.81220    7  1  6   766.40038 84.3   809.81238
  6  1  6   780.25028 89.1   809.85189    8  3  6   739.91463 76.9   809.85209
  6  1  6   780.27842 81.0   809.88003    8  3  6   739.94187 81.9   809.87933
  6  1  6   780.28206 83.1   809.88367    7  1  6   766.47154 79.4   809.88354
  6  1  6   780.32290 33.7   809.92451    8  3  6   739.98675 57.1   809.92421
  6  1  6   780.32915 88.1   809.93076    8  3  6   739.99424 81.2   809.93170
  6  1  6   780.35190 41.7   809.95351    8  3  6   740.01648 56.5   809.95394
  6  1  6   780.38531 65.1   809.98692    8  3  6   740.04986 72.2   809.98732
  6  1  6   780.39586 88.0   809.99747    7  1  6   766.58592 76.9   809.99793
  6  1  6   780.42226 80.2   810.02387    8  3  6   740.08625 56.6   810.02371
  6  1  6   780.43749 85.2   810.03910    8  3  6   740.10235 83.0   810.03981
  6  1  6   780.51276 70.7   810.11437    7  1  6   766.70224 86.7   810.11424
  7  1  6   764.77381 80.5   808.18581    8  3  6   738.24807 24.9   808.18553
  7  1  6   764.83807 62.7   808.25007    8  3  6   738.31311 70.3   808.25057
  7  1  6   764.86620 73.0   808.27820    8  3  6   738.34056 84.1   808.27802
  7  1  6   764.89961 50.4   808.31161    8  3  6   738.37467 87.5   808.31213
  7  1  6   764.91101 87.9   808.32301    8  3  6   738.38557 65.1   808.32303
  7  1  6   764.96408 76.0   808.37608    8  3  6   738.43944 67.5   808.37690
  7  1  6   764.97595 78.0   808.38796    8  3  6   738.44975 83.0   808.38721
  7  1  6   765.00452 80.3   808.41652    8  3  6   738.47895 83.2   808.41641
  7  1  6   765.04196 55.5   808.45396    8  3  6   738.51675 51.5   808.45421
  7  1  6   765.05018 11.2   808.46218    8  3  6   738.52510 74.9   808.46256
  7  1  6   765.09189 70.3   808.50389    8  3  6   738.56727 83.8   808.50473
  7  1  6   765.10269 82.7   808.51469    8  3  6   738.57697 77.5   808.51443
  7  1  6   765.11673 74.6   808.52873    8  3  6   738.59180 55.7   808.52926
  7  1  6   765.17123 68.5   808.58323    8  3  6   738.64589 51.1   808.58335
  7  1  6   765.19056 58.9   808.60256    8  3  6   738.66585 73.5   808.60331
  7  1  6   765.23663 81.2   808.64863    8  3  6   738.71205 89.6   808.64951
  7  1  6   765.25302 28.7   808.66502    8  3  6   738.72660 79.8   808.66406
  7  1  6   765.25836 83.6   808.67036    8  3  6   738.73308 54.0   808.67054
  7  1  6   765.27766 13.6   808.68966    8  3  6   738.75207 70.3   808.68953
  7  1  6   765.29249 82.4   808.70449    8  3  6   738.76728 16.5   808.70474
  7  1  6   765.29765 83.7   808.70965    8  3  6   738.77304 73.1   808.71050
  7  1  6   765.34223 76.8   808.75423    8  3  6   738.81737 76.7   808.75483
  7  1  6   765.36136 82.0   808.77336    8  3  6   738.83598 76.5   808.77344
  7  1  6   765.36893 82.2   808.78093    8  3  6   738.84252 88.1   808.77998
  7  1  6   765.51022 75.7   808.92222    8  3  6   738.98450 87.2   808.92196
  7  1  6   765.54248 59.4   808.95448    8  3  6   739.01797 39.2   808.95543
  7  1  6   765.54840 71.1   808.96040    8  3  6   739.02377 40.7   808.96123
  7  1  6   765.58057 45.6   808.99257    8  3  6   739.05560 57.4   808.99306
  7  1  6   765.63055 85.9   809.04255    8  3  6   739.10459 74.2   809.04205
  7  1  6   765.66425 50.8   809.07625    8  3  6   739.13907 44.7   809.07653
  7  1  6   765.67393 52.2   809.08593    8  3  6   739.14894 70.8   809.08640
  7  1  6   765.71035 84.3   809.12235    8  3  6   739.18533 51.1   809.12279
  7  1  6   765.77059 69.9   809.18259    8  3  6   739.24566 64.5   809.18312
  7  1  6   765.79880 62.0   809.21080    8  3  6   739.27376 53.9   809.21122
  7  1  6   765.86461 27.5   809.27661    8  3  6   739.33865 54.8   809.27611
  7  1  6   765.92788 88.2   809.33988    8  3  6   739.40271 66.1   809.34017
  7  1  6   766.03110 52.7   809.44310    8  3  6   739.50513 27.2   809.44259
  7  1  6   766.10492 55.9   809.51692    8  3  6   739.57966 16.4   809.51712
  7  1  6   766.21544 84.2   809.62744    8  3  6   739.68941 42.1   809.62687
  7  1  6   766.24155 36.0   809.65355    8  3  6   739.71673 58.4   809.65419
  7  1  6   766.26114 80.0   809.67314    8  3  6   739.73602 87.3   809.67348
  7  1  6   766.29276 48.3   809.70476    8  3  6   739.76645 88.0   809.70391
  7  1  6   766.34191 56.5   809.75391    8  3  6   739.81565 39.5   809.75311
  7  1  6   766.41939 87.2   809.83139    8  3  6   739.89423 43.6   809.83169
  7  1  6   766.46635 47.9   809.87835    8  3  6   739.94187 81.9   809.87933
  7  1  6   766.57805 82.8   809.99005    8  3  6   740.05314 71.7   809.99060
  7  1  6   766.59333 74.3   810.00533    8  3  6   740.06860 73.8   810.00606
  7  1  6   766.65972 84.8   810.07172    8  3  6   740.13441 34.7   810.07187
