Range    : 0.500
Accuracy : 0.001
Control file  : C2HD3gr   
Spectrum file : s         

 Searching   5  5  1 near   1073.60328
 No   1:   4  4  1       48.31318  reg  1024.790 -  1025.790
 No   2:   5  4  1       55.33487  reg  1017.768 -  1018.768
 No   3:   6  6  1      106.57171  reg   966.532 -   967.532
  4  4  1  1024.89822 69.9  1073.21140    5  4  1  1017.87735 72.9  1073.21222
  4  4  1  1024.94570 53.6  1073.25888    5  4  1  1017.92349 79.5  1073.25836
  4  4  1  1025.73563 87.4  1074.04881    5  4  1  1018.71320 81.9  1074.04807
  5  4  1  1018.15731 65.9  1073.49218    6  6  1   966.92065 89.3  1073.49236

 Searching   6  5  2 near   1082.02685
 No   1:   5  4  2       55.33476  reg  1026.192 -  1027.192
 No   2:   6  4  2       63.76837  reg  1017.758 -  1018.758
 No   3:   7  6  2      116.39707  reg   965.130 -   966.130
  5  4  2  1026.84158 85.5  1082.17634    6  4  2  1018.40728 86.0  1082.17565

 Searching   7  5  3 near   1091.86053
 No   1:   6  4  3       63.76783  reg  1027.593 -  1028.593
 No   2:   7  4  3       73.61808  reg  1017.742 -  1018.742
 No   3:   8  6  3      127.63152  reg   963.729 -   964.729
  6  4  3  1027.56928 79.4  1091.33711    8  6  3   963.70529 89.1  1091.33681
  6  4  3  1027.83257 80.0  1091.60040    8  6  3   963.96910 83.6  1091.60062
  6  4  3  1027.89230 89.7  1091.66013    8  6  3   964.02893 89.8  1091.66045
  6  4  3  1028.13100 64.1  1091.89883    8  6  3   964.26687 75.8  1091.89839
  6  4  3  1028.13904 79.6  1091.90687    7  4  3  1018.28834 86.3  1091.90642
  6  4  3  1028.20546 77.3  1091.97329    8  6  3   964.34100 69.1  1091.97252
  6  4  3  1028.38810 85.7  1092.15593    7  4  3  1018.53787 66.0  1092.15595
                                          8  6  3   964.52354 31.0  1092.15506
  6  4  3  1028.63133 86.5  1092.39916    8  6  3   964.76731 58.7  1092.39883
  7  4  3  1018.53787 66.0  1092.15595    8  6  3   964.52354 31.0  1092.15506

 Searching   8  5  4 near   1103.10718
 No   1:   7  4  4       73.61611  reg  1028.991 -  1029.991
 No   2:   8  4  4       84.88948  reg  1017.718 -  1018.718
 No   3:   9  6  4      140.27724  reg   962.330 -   963.330
  7  4  4  1029.19751 55.2  1102.81362    8  4  4  1017.92349 79.5  1102.81297
  7  4  4  1029.51184 89.7  1103.12795    8  4  4  1018.23789 86.2  1103.12737
  7  4  4  1029.56113 63.8  1103.17724    8  4  4  1018.28834 86.3  1103.17782
  7  4  4  1029.60332 89.1  1103.21943    8  4  4  1018.32970 69.9  1103.21918
  8  4  4  1018.09027 73.8  1102.97975    9  6  4   962.70205 11.3  1102.97929
  8  4  4  1018.29432 75.1  1103.18380    9  6  4   962.90631 89.4  1103.18355
  8  4  4  1018.40728 86.0  1103.29676    9  6  4   963.01993 86.2  1103.29717

 Searching   9  5  5 near   1115.77004
 No   1:   8  4  5       84.88362  reg  1030.386 -  1031.386
 No   2:   9  4  5       97.58956  reg  1017.680 -  1018.680
 No   3:  10  6  5      154.33672  reg   960.933 -   961.933
  8  4  5  1030.39071 75.6  1115.27433   10  6  5   960.93674 71.9  1115.27346
  8  4  5  1030.58447 82.6  1115.46809   10  6  5   961.13108 41.5  1115.46780
  8  4  5  1030.79865 83.8  1115.68227   10  6  5   961.34628 11.0  1115.68300
  8  4  5  1030.80941 71.3  1115.69303   10  6  5   961.35548 52.5  1115.69220
  8  4  5  1031.01548 88.8  1115.89910   10  6  5   961.56242 53.9  1115.89914
  8  4  5  1031.03558 72.0  1115.91920    9  4  5  1018.32970 69.9  1115.91926
  8  4  5  1031.24633 51.5  1116.12995   10  6  5   961.79287 26.0  1116.12959
  8  4  5  1031.35375 78.7  1116.23737   10  6  5   961.90032 86.5  1116.23704
  9  4  5  1017.87735 72.9  1115.46691   10  6  5   961.13108 41.5  1115.46780
  9  4  5  1018.20830 68.1  1115.79786   10  6  5   961.46043 86.2  1115.79715
  9  4  5  1018.28834 86.3  1115.87790   10  6  5   961.54069 82.3  1115.87741

 Searching  10  5  6 near   1129.85272
 No   1:   9  4  6       97.57445  reg  1031.778 -  1032.778
 No   2:  10  4  6      111.72730  reg  1017.625 -  1018.625
 No   3:  11  6  6      169.81270  reg   959.540 -   960.540
  9  4  6  1032.07019 55.2  1129.64464   11  6  6   959.83122 86.8  1129.64392
  9  4  6  1032.08344 72.6  1129.65789   11  6  6   959.84423 87.2  1129.65693
  9  4  6  1032.09923 85.0  1129.67368   10  4  6  1017.94721 88.6  1129.67451
 10  4  6  1017.96663 65.9  1129.69393   11  6  6   959.88131 89.8  1129.69401
 10  4  6  1018.55758 78.4  1130.28488   11  6  6   960.47280 65.9  1130.28550
