Range    : 5.000
Accuracy : 0.001
Control file  : C2HD3gr   
Spectrum file : w         

 Searching   3  3  0 near    751.70560
 No   1:   2  2  0       12.78833  reg   733.917 -   743.917
 No   2:   4  4  0       48.31320  reg   698.392 -   708.392
  2  2  0   735.18001 72.9   747.96834    4  4  0   699.65566 89.7   747.96886
  2  2  0   736.55747 85.4   749.34580    4  4  0   701.03347 57.1   749.34667
  2  2  0   737.62159 67.1   750.40992    4  4  0   702.09663 86.5   750.40983
  2  2  0   738.36739 66.3   751.15572    4  4  0   702.84224 85.2   751.15544
  2  2  0   738.81064 78.4   751.59897    4  4  0   703.28490 89.8   751.59810
  2  2  0   739.59089 86.1   752.37922    4  4  0   704.06615 83.9   752.37935
  2  2  0   739.67057 39.0   752.45890    4  4  0   704.14613 88.0   752.45933
  2  2  0   739.83283 81.8   752.62116    4  4  0   704.30769 86.1   752.62089
  2  2  0   739.87130 76.9   752.65963    4  4  0   704.34642 46.9   752.65962
  2  2  0   740.39446 42.1   753.18279    4  4  0   704.87046 72.9   753.18366
  2  2  0   740.51371 39.5   753.30204    4  4  0   704.98950 89.7   753.30270
  2  2  0   741.28412 89.0   754.07245    4  4  0   705.75840 86.5   754.07160
  2  2  0   741.87793 82.3   754.66626    4  4  0   706.35301 84.3   754.66621
  2  2  0   742.46341 75.8   755.25174    4  4  0   706.93785 74.9   755.25105
  2  2  0   743.47396 89.3   756.26229    4  4  0   707.94826 87.7   756.26146

 Searching   4  3  1 near    757.32670
 No   1:   3  2  1       17.02892  reg   735.298 -   745.298
 No   2:   4  4  1       48.31318  reg   704.014 -   714.014
 No   3:   5  4  1       55.33487  reg   696.992 -   706.992
  3  2  1   735.48901 82.3   752.51793    4  4  1   704.20403 89.7   752.51721
  3  2  1   735.50393 81.5   752.53285    4  4  1   704.21905 14.7   752.53223
  3  2  1   735.88000 78.9   752.90892    5  4  1   697.57499 26.3   752.90986
  3  2  1   736.34038 34.4   753.36930    5  4  1   698.03484 89.5   753.36971
  3  2  1   736.65016 87.9   753.67908    5  4  1   698.34349 83.9   753.67836
  3  2  1   736.73655 84.9   753.76547    5  4  1   698.43040 68.3   753.76527
  3  2  1   736.89239 35.7   753.92131    4  4  1   705.60763 75.4   753.92081
  3  2  1   737.15283 86.3   754.18175    5  4  1   698.84620 35.7   754.18107
  3  2  1   737.95868 81.7   754.98760    4  4  1   706.67522 72.7   754.98840
  3  2  1   738.28214 61.4   755.31106    5  4  1   699.97524 56.6   755.31011
  3  2  1   738.39965 58.8   755.42857    4  4  1   707.11631 77.7   755.42949
  3  2  1   738.51001 87.5   755.53893    4  4  1   707.22645 71.2   755.53963
  3  2  1   738.63316 71.3   755.66208    4  4  1   707.34930 89.6   755.66248
  3  2  1   739.75691 89.0   756.78583    5  4  1   701.45081 88.7   756.78568
  3  2  1   739.85960 46.0   756.88852    5  4  1   701.55315 63.5   756.88802
  3  2  1   740.31034 35.6   757.33926    4  4  1   709.02685 87.4   757.34003
  3  2  1   740.64024 63.6   757.66916    4  4  1   709.35669 85.4   757.66987
  3  2  1   740.82904 70.2   757.85796    4  4  1   709.54444 77.8   757.85762
  3  2  1   741.16271 83.8   758.19163    4  4  1   709.87843 73.8   758.19161
  3  2  1   741.28412 89.0   758.31304    4  4  1   710.00060 86.5   758.31378
  3  2  1   741.65434 88.5   758.68326    4  4  1   710.37086 83.8   758.68404
  3  2  1   741.66424 76.2   758.69316    4  4  1   710.38058 88.6   758.69376
  3  2  1   742.46341 75.8   759.49233    4  4  1   711.17926 46.9   759.49244
  3  2  1   742.50601 88.3   759.53493    5  4  1   704.19940 85.3   759.53427
  3  2  1   742.52920 83.5   759.55812    5  4  1   704.22423 85.0   759.55910
  3  2  1   743.37806 87.6   760.40698    5  4  1   705.07117 86.7   760.40604
  3  2  1   744.50995 88.3   761.53887    4  4  1   713.22580 78.1   761.53898
  3  2  1   744.52589 39.9   761.55481    4  4  1   713.24205 74.2   761.55523
  3  2  1   744.61217 76.6   761.64109    4  4  1   713.32888 79.9   761.64206
  3  2  1   745.18119 85.1   762.21011    4  4  1   713.89621 82.7   762.20939
  4  4  1   704.19377 46.3   752.50695    5  4  1   697.17120 39.3   752.50607
  4  4  1   704.40832 35.5   752.72150    5  4  1   697.38612 80.1   752.72099
  4  4  1   705.56123 74.1   753.87441    5  4  1   698.53952 63.5   753.87439
  4  4  1   706.84911 89.1   755.16229    5  4  1   699.82695 78.2   755.16182
  4  4  1   707.38341 75.1   755.69659    5  4  1   700.36159 87.4   755.69646
  4  4  1   707.48940 62.5   755.80258    5  4  1   700.46763 75.7   755.80250
  4  4  1   707.99325 80.6   756.30643    5  4  1   700.97101 59.2   756.30588
  4  4  1   708.05556 48.6   756.36874    5  4  1   701.03347 57.1   756.36834
  4  4  1   708.95663 81.9   757.26981    5  4  1   701.93478 86.8   757.26965
  4  4  1   709.02209 86.4   757.33527    5  4  1   702.00080 85.2   757.33567
  4  4  1   709.02685 87.4   757.34003    5  4  1   702.00579 73.7   757.34066
  4  4  1   709.35669 85.4   757.66987    5  4  1   702.33539 89.9   757.67026
  4  4  1   709.66802 84.1   757.98120    5  4  1   702.64648 86.1   757.98135
  4  4  1   710.59687 74.7   758.91005    5  4  1   703.57479 49.4   758.90966
  4  4  1   711.89228 52.1   760.20546    5  4  1   704.87046 72.9   760.20533
  4  4  1   712.80588 88.9   761.11906    5  4  1   705.78510 81.6   761.11997
  4  4  1   713.44949 58.9   761.76267    5  4  1   706.42736 79.5   761.76223
  4  4  1   713.50998 51.8   761.82316    5  4  1   706.48749 84.4   761.82236
  4  4  1   713.57931 89.5   761.89249    5  4  1   706.55745 85.2   761.89232
  4  4  1   713.63190 79.0   761.94508    5  4  1   706.60980 71.6   761.94467

 Searching   5  3  2 near    764.36522
 No   1:   4  2  2       22.72108  reg   736.644 -   746.644
 No   2:   5  4  2       55.33476  reg   704.030 -   714.030
 No   3:   6  4  2       63.76837  reg   695.597 -   705.597
  4  2  2   736.81736 64.0   759.53844    5  4  2   704.20403 89.7   759.53879
  4  2  2   736.89239 35.7   759.61347    5  4  2   704.27909 46.1   759.61385
  4  2  2   736.93079 80.8   759.65187    5  4  2   704.31682 84.1   759.65158
  4  2  2   738.36739 66.3   761.08847    5  4  2   705.75284 22.9   761.08760
  4  2  2   738.39965 58.8   761.12073    5  4  2   705.78510 81.6   761.11986
  4  2  2   738.49456 20.7   761.21564    5  4  2   705.88003 73.8   761.21479
  4  2  2   738.62195 60.8   761.34303    6  4  2   697.57499 26.3   761.34336
  4  2  2   739.04128 77.9   761.76236    5  4  2   706.42736 79.5   761.76212
  4  2  2   739.39627 89.7   762.11735    6  4  2   698.34822 85.0   762.11659
  4  2  2   739.41639 72.4   762.13747    6  4  2   698.37009 66.7   762.13846
  4  2  2   739.47070 89.2   762.19178    6  4  2   698.42316 88.6   762.19153
  4  2  2   739.58132 78.3   762.30240    5  4  2   706.96748 82.4   762.30224
  4  2  2   739.58636 89.7   762.30744    6  4  2   698.53952 63.5   762.30789
  4  2  2   739.82568 77.6   762.54676    6  4  2   698.77831 83.3   762.54668
  4  2  2   739.83922 76.7   762.56030    5  4  2   707.22645 71.2   762.56121
  4  2  2   739.89380 87.4   762.61488    6  4  2   698.84620 35.7   762.61457
  4  2  2   739.89946 37.9   762.62054    6  4  2   698.85231 69.7   762.62068
  4  2  2   740.10746 70.0   762.82854    5  4  2   707.49391 64.9   762.82867
  4  2  2   740.65686 74.8   763.37794    6  4  2   699.60930 89.7   763.37767
  4  2  2   740.82904 70.2   763.55012    6  4  2   699.78114 86.8   763.54951
  4  2  2   741.61843 70.6   764.33951    5  4  2   709.00495 84.2   764.33971
  4  2  2   741.63626 85.5   764.35734    5  4  2   709.02209 86.4   764.35685
  4  2  2   742.17996 87.6   764.90104    5  4  2   709.56589 81.4   764.90065
  4  2  2   742.20933 64.5   764.93041    6  4  2   701.16303 57.7   764.93140
  4  2  2   742.28230 88.6   765.00338    5  4  2   709.66802 84.1   765.00278
  4  2  2   742.98404 76.3   765.70512    5  4  2   710.37086 83.8   765.70562
  4  2  2   743.11414 29.9   765.83522    6  4  2   702.06682 77.0   765.83519
  4  2  2   743.15751 87.1   765.87859    6  4  2   702.11021 63.1   765.87858
  4  2  2   743.20999 89.9   765.93107    5  4  2   710.59687 74.7   765.93163
  4  2  2   743.28408 88.8   766.00516    5  4  2   710.66976 88.5   766.00452
  4  2  2   743.37806 87.6   766.09914    5  4  2   710.76342 77.2   766.09818
  4  2  2   744.35380 85.4   767.07488    6  4  2   703.30580 85.7   767.07417
  4  2  2   745.26563 77.5   767.98671    6  4  2   704.21905 14.7   767.98742
  4  2  2   745.41024 87.7   768.13132    6  4  2   704.36208 54.2   768.13045
  4  2  2   745.49635 87.4   768.21743    6  4  2   704.44967 84.9   768.21804
  4  2  2   745.73478 88.8   768.45586    5  4  2   713.12196 75.6   768.45672
  4  2  2   745.84043 71.8   768.56151    5  4  2   713.22580 78.1   768.56056
  4  2  2   746.12442 54.7   768.84550    5  4  2   713.50998 51.8   768.84474
  4  2  2   746.36476 85.5   769.08584    6  4  2   705.31841 86.9   769.08678
  4  2  2   746.59986 87.2   769.32094    6  4  2   705.55180 85.8   769.32017
  5  4  2   704.13102 82.7   759.46578    6  4  2   695.69750 52.8   759.46587
  5  4  2   706.92566 82.0   762.26042    6  4  2   698.49134 64.6   762.25971
  5  4  2   708.53413 88.4   763.86889    6  4  2   700.10139 80.0   763.86976
  5  4  2   709.35669 85.4   764.69145    6  4  2   700.92403 68.3   764.69240
  5  4  2   709.53327 87.3   764.86803    6  4  2   701.09875 90.0   764.86712
  5  4  2   709.59674 88.5   764.93150    6  4  2   701.16303 57.7   764.93140
  5  4  2   710.14351 87.9   765.47827    6  4  2   701.70924 89.2   765.47761
  5  4  2   712.75966 85.6   768.09442    6  4  2   704.32702 89.1   768.09539
  5  4  2   713.97604 46.8   769.31080    6  4  2   705.54266 86.6   769.31103
  5  4  2   713.99508 75.9   769.32984    6  4  2   705.56123 74.1   769.32960
  5  4  2   714.04108 68.5   769.37584    6  4  2   705.60763 75.4   769.37600

 Searching   6  3  3 near    772.83140
 No   1:   5  2  3       29.89272  reg   737.939 -   747.939
 No   2:   6  4  3       63.76783  reg   704.064 -   714.064
 No   3:   7  4  3       73.61808  reg   694.213 -   704.213
  5  2  3   738.23629 86.7   768.12901    6  4  3   704.36208 54.2   768.12991
  5  2  3   738.41434 85.8   768.30706    7  4  3   694.68872 88.6   768.30680
  5  2  3   739.17005 85.9   769.06277    7  4  3   695.44371 77.4   769.06179
  5  2  3   739.26379 87.7   769.15651    7  4  3   695.53855 74.1   769.15663
  5  2  3   739.47070 89.2   769.36342    6  4  3   705.59564 80.6   769.36347
  5  2  3   739.49278 74.1   769.38550    7  4  3   695.76771 86.5   769.38579
  5  2  3   739.83922 76.7   769.73194    6  4  3   705.96504 73.7   769.73287
  5  2  3   739.85960 46.0   769.75232    6  4  3   705.98361 71.3   769.75144
  5  2  3   740.10746 70.0   770.00018    7  4  3   696.38307 89.6   770.00115
  5  2  3   740.81348 88.5   770.70620    6  4  3   706.93785 74.9   770.70568
  5  2  3   741.27482 89.1   771.16754    6  4  3   707.39943 69.5   771.16726
  5  2  3   741.89604 89.3   771.78876    7  4  3   698.17105 54.1   771.78913
  5  2  3   742.35238 65.9   772.24510    7  4  3   698.62613 82.0   772.24421
  5  2  3   743.43838 86.2   773.33110    7  4  3   699.71217 79.8   773.33025
  5  2  3   744.05212 89.3   773.94484    6  4  3   710.17603 82.6   773.94386
  5  2  3   744.50492 65.0   774.39764    7  4  3   700.77885 77.0   774.39693
  5  2  3   744.50995 88.3   774.40267    7  4  3   700.78442 88.8   774.40250
  5  2  3   744.53739 70.4   774.43011    7  4  3   700.81268 36.0   774.43076
  5  2  3   744.70863 75.8   774.60135    7  4  3   700.98244  8.9   774.60052
  5  2  3   744.82436 68.3   774.71708    6  4  3   710.94828 82.9   774.71611
                                          7  4  3   701.09875 90.0   774.71683
  5  2  3   745.17548 51.7   775.06820    7  4  3   701.45081 88.7   775.06889
  5  2  3   745.35834 87.2   775.25106    6  4  3   711.48398 68.4   775.25181
  5  2  3   745.99489 88.7   775.88761    6  4  3   712.11916 72.2   775.88699
  5  2  3   746.67200 84.1   776.56472    7  4  3   702.94747 87.9   776.56555
  5  2  3   746.97748 89.6   776.87020    6  4  3   713.10249 89.2   776.87032
  5  2  3   747.20368 67.6   777.09640    6  4  3   713.32888 79.9   777.09671
  5  2  3   747.23576 56.5   777.12848    6  4  3   713.36080 82.7   777.12863
  5  2  3   747.35091 89.5   777.24363    7  4  3   703.62533 66.4   777.24341
  5  2  3   747.63071 84.6   777.52343    6  4  3   713.75530 67.8   777.52313
  6  4  3   704.27909 46.1   768.04692    7  4  3   694.42906 67.0   768.04714
  6  4  3   704.32702 89.1   768.09485    7  4  3   694.47591 89.4   768.09399
  6  4  3   704.40832 35.5   768.17615    7  4  3   694.55900 73.2   768.17708
  6  4  3   704.69676 82.5   768.46459    7  4  3   694.84714 85.0   768.46522
  6  4  3   705.61887 28.5   769.38670    7  4  3   695.76771 86.5   769.38579
  6  4  3   708.27998 84.6   772.04781    7  4  3   698.43040 68.3   772.04848
  6  4  3   708.76487 79.3   772.53270    7  4  3   698.91416 73.2   772.53224
  6  4  3   710.46049 76.4   774.22832    7  4  3   700.60962 86.1   774.22770
  6  4  3   710.94828 82.9   774.71611    7  4  3   701.09875 90.0   774.71683
  6  4  3   712.49695 89.5   776.26478    7  4  3   702.64648 86.1   776.26456
  6  4  3   714.06287 89.3   777.83070    7  4  3   704.21341 89.3   777.83149

 Searching   7  3  4 near    782.73950
 No   1:   6  2  4       38.57011  reg   739.169 -   749.169
 No   2:   7  4  4       73.61611  reg   704.123 -   714.123
 No   3:   8  4  4       84.88948  reg   692.850 -   702.850
  6  2  4   739.29747 88.5   777.86758    8  4  4   692.97826 67.3   777.86774
  6  2  4   739.43395 73.6   778.00406    8  4  4   693.11466 60.2   778.00414
  6  2  4   739.50373 85.0   778.07384    8  4  4   693.18431 89.6   778.07379
  6  2  4   739.59089 86.1   778.16100    8  4  4   693.27068 63.2   778.16016
  6  2  4   739.61566 86.6   778.18577    7  4  4   704.57002 38.9   778.18613
  6  2  4   739.83922 76.7   778.40933    8  4  4   693.51915 85.7   778.40863
  6  2  4   739.85960 46.0   778.42971    7  4  4   704.81315 71.0   778.42926
  6  2  4   740.42484 83.0   778.99495    7  4  4   705.37961 89.3   778.99572
  6  2  4   740.53376 87.4   779.10387    7  4  4   705.48790 88.8   779.10401
  6  2  4   740.91278 89.6   779.48289    7  4  4   705.86595 81.4   779.48206
  6  2  4   741.24070 88.0   779.81081    7  4  4   706.19430 63.5   779.81041
  6  2  4   741.35700 81.4   779.92711    8  4  4   695.03699 68.8   779.92647
  6  2  4   741.89604 89.3   780.46615    7  4  4   706.84911 89.1   780.46522
  6  2  4   742.08699 87.0   780.65710    7  4  4   707.04024 52.6   780.65635
                                          8  4  4   695.76771 86.5   780.65719
  6  2  4   742.36645 81.8   780.93656    7  4  4   707.32131 87.2   780.93742
  6  2  4   743.14609 89.6   781.71620    8  4  4   696.82767 86.2   781.71715
  6  2  4   743.16220 89.1   781.73231    8  4  4   696.84295 83.9   781.73243
  6  2  4   743.54478 72.9   782.11489    8  4  4   697.22576 88.9   782.11524
  6  2  4   743.89492 45.3   782.46503    8  4  4   697.57499 26.3   782.46447
  6  2  4   744.35380 85.4   782.92391    8  4  4   698.03484 89.5   782.92432
  6  2  4   744.39645 29.4   782.96656    7  4  4   709.35116 65.0   782.96727
  6  2  4   744.59015 84.9   783.16026    7  4  4   709.54444 77.8   783.16055
  6  2  4   744.61217 76.6   783.18228    7  4  4   709.56589 81.4   783.18200
  6  2  4   744.67877 79.7   783.24888    8  4  4   698.35966 89.6   783.24914
  6  2  4   744.75045 74.5   783.32056    8  4  4   698.43040 68.3   783.31988
  6  2  4   744.79108 87.4   783.36119    7  4  4   709.74469 68.4   783.36080
  6  2  4   745.80898 44.5   784.37909    7  4  4   710.76342 77.2   784.37953
  6  2  4   745.99489 88.7   784.56500    7  4  4   710.94828 82.9   784.56439
  6  2  4   746.38598 88.6   784.95609    7  4  4   711.34087 77.7   784.95698
  6  2  4   746.78348 88.5   785.35359    7  4  4   711.73818 33.5   785.35429
  6  2  4   747.11201 46.3   785.68212    8  4  4   700.79349 87.2   785.68297
  6  2  4   747.23576 56.5   785.80587    8  4  4   700.91561 85.7   785.80509
  6  2  4   747.25020 79.9   785.82031    7  4  4   712.20413 89.9   785.82024
                                          8  4  4   700.93173 36.7   785.82121
  6  2  4   748.28819 87.8   786.85830    7  4  4   713.24205 74.2   786.85816
  6  2  4   748.49620 89.9   787.06631    7  4  4   713.44949 58.9   787.06560
  6  2  4   748.62623 88.8   787.19634    7  4  4   713.57931 89.5   787.19542
                                          8  4  4   702.30737 88.0   787.19685
  6  2  4   748.80206 73.7   787.37217    7  4  4   713.75530 67.8   787.37141
  6  2  4   749.08803 89.1   787.65814    7  4  4   714.04108 68.5   787.65719
  7  4  4   705.59564 80.6   779.21175    8  4  4   694.32236 62.9   779.21184
  7  4  4   705.83322 80.4   779.44933    8  4  4   694.55900 73.2   779.44848
  7  4  4   706.98627 48.6   780.60238    8  4  4   695.71355 81.6   780.60303
  7  4  4   707.04024 52.6   780.65635    8  4  4   695.76771 86.5   780.65719
  7  4  4   707.49391 64.9   781.11002    8  4  4   696.21959 87.3   781.10907
  7  4  4   708.27998 84.6   781.89609    8  4  4   697.00636 54.6   781.89584
  7  4  4   708.65900 87.6   782.27511    8  4  4   697.38612 80.1   782.27560
  7  4  4   709.35669 85.4   782.97280    8  4  4   698.08250 83.1   782.97198
  7  4  4   709.63820 80.0   783.25431    8  4  4   698.36490 81.6   783.25438
  7  4  4   709.77983 81.9   783.39594    8  4  4   698.50615 65.4   783.39563
  7  4  4   709.81288 88.8   783.42899    8  4  4   698.53952 63.5   783.42900
  7  4  4   712.20413 89.9   785.82024    8  4  4   700.93173 36.7   785.82121
  7  4  4   713.73136 80.2   787.34747    8  4  4   702.45731 84.9   787.34679

 Searching   8  3  5 near    794.10844
 No   1:   7  2  5       48.77161  reg   740.337 -   750.337
 No   2:   8  4  5       84.88362  reg   704.225 -   714.225
 No   3:   9  4  5       97.58956  reg   691.519 -   701.519
  7  2  5   740.39446 42.1   789.16607    9  4  5   691.57612 36.5   789.16568
  7  2  5   740.42484 83.0   789.19645    8  4  5   704.31215 88.3   789.19577
  7  2  5   740.47310 85.7   789.24471    8  4  5   704.36208 54.2   789.24570
  7  2  5   740.53376 87.4   789.30537    9  4  5   691.71634 87.3   789.30590
  7  2  5   741.65434 88.5   790.42595    8  4  5   705.54266 86.6   790.42628
  7  2  5   741.66424 76.2   790.43585    8  4  5   705.55180 85.8   790.43542
  7  2  5   742.44732 72.0   791.21893    8  4  5   706.33468 89.7   791.21830
  7  2  5   743.15167  2.0   791.92328    8  4  5   707.04024 52.6   791.92386
  7  2  5   744.24116 88.1   793.01277    9  4  5   695.42253 80.7   793.01209
  7  2  5   744.45322 78.1   793.22483    8  4  5   708.34050 51.9   793.22412
  7  2  5   744.53195 77.1   793.30356    9  4  5   695.71355 81.6   793.30311
  7  2  5   745.58362 76.1   794.35523    9  4  5   696.76599 85.5   794.35555
  7  2  5   745.67895 87.2   794.45056    9  4  5   696.86029 49.8   794.44985
  7  2  5   745.70961 75.9   794.48122    8  4  5   709.59674 88.5   794.48036
  7  2  5   745.80898 44.5   794.58059    8  4  5   709.69760 84.1   794.58122
  7  2  5   745.89217 80.6   794.66378    8  4  5   709.77983 81.9   794.66345
  7  2  5   746.05858 86.4   794.83019    9  4  5   697.24086 89.1   794.83042
  7  2  5   746.11343 78.1   794.88504    8  4  5   710.00060 86.5   794.88422
  7  2  5   746.41565 24.7   795.18726    8  4  5   710.30359 86.2   795.18721
  7  2  5   746.43479 87.5   795.20640    9  4  5   697.61728 56.3   795.20684
  7  2  5   747.08084 90.0   795.85245    9  4  5   698.26363 70.1   795.85319
  7  2  5   748.17288 88.0   796.94449    8  4  5   712.06027 89.3   796.94389
                                          9  4  5   699.35583 86.7   796.94539
  7  2  5   748.28819 87.8   797.05980    9  4  5   699.47066 88.1   797.06022
  7  2  5   748.30497 56.1   797.07658    8  4  5   712.19321 66.6   797.07683
  7  2  5   749.16496 88.9   797.93657    8  4  5   713.05262 87.1   797.93624
  7  2  5   749.42806 85.5   798.19967    9  4  5   700.60962 86.1   798.19918
  8  4  5   705.31841 86.9   790.20203    9  4  5   692.61214 90.0   790.20170
  8  4  5   707.64025 87.0   792.52387    9  4  5   694.93508 17.5   792.52464
  8  4  5   709.53327 87.3   794.41689    9  4  5   696.82767 86.2   794.41723
  8  4  5   709.56589 81.4   794.44951    9  4  5   696.86029 49.8   794.44985
  8  4  5   711.48398 68.4   796.36760    9  4  5   698.77831 83.3   796.36787
  8  4  5   712.49695 89.5   797.38057    9  4  5   699.79047 75.6   797.38003
  8  4  5   712.68056 71.0   797.56418    9  4  5   699.97524 56.6   797.56480
  8  4  5   713.10249 89.2   797.98611    9  4  5   700.39591 56.9   797.98547
  8  4  5   713.50998 51.8   798.39360    9  4  5   700.80384 76.8   798.39340
